index,unixTimestamp,TP9,AF7,AF8,TP10
0,1734037504384.625,-0.48828125,0,-0.48828125,0
1,1734037504388.5312,0,0,-1.46484375,0
2,1734037504392.4375,-0.9765625,-1.953125,8.7890625,-2.44140625
3,1734037504396.3438,1.953125,3.41796875,-29.296875,2.9296875
4,1734037504400.25,-6.8359375,-18.5546875,103.515625,-11.71875
5,1734037504404.1562,-13.18359375,-56.15234375,102.05078125,-70.3125
6,1734037504408.0625,8.7890625,-50.78125,-97.65625,-67.3828125
7,1734037504411.9688,10.7421875,-50.29296875,-43.45703125,26.85546875
8,1734037504415.875,5.37109375,-54.19921875,-17.578125,30.2734375
9,1734037504419.7812,-7.32421875,-37.59765625,-29.78515625,-89.35546875
10,1734037504423.6875,-3.41796875,-26.3671875,-31.25,-85.44921875
11,1734037504427.5938,51.7578125,-31.25,-28.3203125,17.08984375
0,1734037504431.5,57.6171875,-31.73828125,-25.390625,53.7109375
1,1734037504435.4062,1.953125,-38.0859375,-18.5546875,-16.6015625
2,1734037504439.3125,-7.8125,-43.45703125,-29.78515625,-91.30859375
3,1734037504443.2188,24.4140625,-30.76171875,-28.3203125,-37.59765625
4,1734037504447.125,39.0625,-23.4375,-26.85546875,20.99609375
5,1734037504451.0312,24.90234375,-29.78515625,-34.66796875,-12.20703125
6,1734037504454.9375,-6.34765625,-35.15625,-35.15625,-83.984375
7,1734037504458.8438,26.85546875,-48.33984375,-22.94921875,-18.06640625
8,1734037504462.75,78.125,-44.43359375,-15.13671875,66.89453125
9,1734037504466.6562,43.45703125,-29.296875,-26.85546875,16.6015625
10,1734037504470.5625,-4.39453125,-41.50390625,-39.55078125,-43.9453125
11,1734037504474.4688,-6.34765625,-47.8515625,-37.59765625,-29.78515625
0,1734037504478.375,16.11328125,-35.15625,-29.296875,15.13671875
1,1734037504482.2812,15.13671875,-30.2734375,-38.57421875,-11.23046875
2,1734037504486.1875,-21.484375,-43.45703125,-47.36328125,-58.10546875
3,1734037504490.0938,-25.87890625,-43.9453125,-42.96875,-56.15234375
4,1734037504494,13.18359375,-30.2734375,-39.0625,8.7890625
5,1734037504497.9062,28.3203125,-24.90234375,-35.64453125,20.01953125
6,1734037504501.8125,6.8359375,-33.69140625,-38.0859375,-29.296875
7,1734037504505.7188,-9.765625,-50.29296875,-42.96875,-45.8984375
8,1734037504509.625,6.8359375,-40.0390625,-49.31640625,-18.06640625
9,1734037504513.5312,10.7421875,-32.71484375,-60.05859375,1.46484375
10,1734037504517.4375,9.765625,-46.38671875,-57.12890625,3.90625
11,1734037504521.3438,-15.13671875,-49.8046875,-52.734375,-56.640625
0,1734037504525.25,-44.43359375,-38.57421875,-50.78125,-75.68359375
1,1734037504529.1562,11.23046875,-40.52734375,-51.7578125,-1.953125
2,1734037504533.0625,26.85546875,-53.7109375,-52.734375,10.25390625
3,1734037504536.9688,-44.43359375,-51.26953125,-53.22265625,-83.49609375
4,1734037504540.875,-34.66796875,-41.9921875,-59.5703125,-89.35546875
5,1734037504544.7812,1.46484375,-48.33984375,-57.6171875,2.9296875
6,1734037504548.6875,1.953125,-55.17578125,-54.6875,31.73828125
7,1734037504552.5938,-17.578125,-49.8046875,-52.24609375,-31.73828125
8,1734037504556.5,-34.66796875,-42.48046875,-46.38671875,-80.078125
9,1734037504560.4062,15.625,-41.50390625,-51.7578125,-16.11328125
10,1734037504564.3125,17.08984375,-47.36328125,-51.26953125,32.2265625
11,1734037504568.2188,-35.64453125,-56.15234375,-50.78125,-29.78515625
0,1734037504572.125,-42.48046875,-53.7109375,-52.24609375,-71.77734375
1,1734037504576.0312,-15.625,-49.31640625,-52.734375,-10.25390625
2,1734037504579.9375,-10.7421875,-48.33984375,-53.7109375,37.109375
3,1734037504583.8438,-55.6640625,-42.96875,-62.01171875,-12.6953125
4,1734037504587.75,-116.69921875,-50.29296875,-76.66015625,-96.6796875
5,1734037504591.6562,-122.0703125,-64.94140625,-76.171875,-65.91796875
6,1734037504595.5625,-76.66015625,-64.453125,-69.3359375,7.8125
7,1734037504599.4688,-74.21875,-50.29296875,-63.96484375,-20.99609375
8,1734037504603.375,-151.85546875,-50.29296875,-56.640625,-86.42578125
9,1734037504607.2812,-140.625,-59.5703125,-49.31640625,-79.58984375
10,1734037504611.1875,-77.1484375,-53.7109375,-38.0859375,-3.90625
11,1734037504615.0938,-87.890625,-41.9921875,-34.1796875,-11.23046875
0,1734037504619,-110.83984375,-50.78125,-39.0625,-75.68359375
1,1734037504622.9062,-107.421875,-56.640625,-39.55078125,-93.75
2,1734037504626.8125,-82.51953125,-60.546875,-28.80859375,-20.99609375
3,1734037504630.7188,-72.75390625,-64.453125,-26.3671875,-0.48828125
4,1734037504634.625,-71.77734375,-62.01171875,-28.3203125,-44.43359375
5,1734037504638.5312,-86.42578125,-73.73046875,-26.85546875,-69.82421875
6,1734037504642.4375,-90.33203125,-68.359375,-20.99609375,-31.73828125
7,1734037504646.3438,-75.1953125,-50.78125,-9.27734375,-4.39453125
8,1734037504650.25,-80.56640625,-52.24609375,-7.32421875,-25.87890625
9,1734037504654.1562,-108.3984375,-57.12890625,-7.8125,-73.2421875
10,1734037504658.0625,-116.69921875,-53.7109375,-6.8359375,-63.96484375
11,1734037504661.9688,-68.84765625,-47.36328125,-8.7890625,13.671875
0,1734037504665.875,-41.9921875,-49.8046875,-11.71875,29.296875
1,1734037504669.7812,-74.70703125,-52.24609375,-18.5546875,-49.8046875
2,1734037504673.6875,-58.59375,-45.8984375,-25.390625,-87.890625
3,1734037504677.5938,-9.27734375,-36.62109375,-21.484375,-5.859375
4,1734037504681.5,1.953125,-34.1796875,-11.23046875,32.2265625
5,1734037504685.4062,-21.484375,-39.0625,-15.13671875,-28.3203125
6,1734037504689.3125,-41.015625,-36.1328125,-21.484375,-84.47265625
7,1734037504693.2188,-13.671875,-28.3203125,-12.6953125,-27.83203125
8,1734037504697.125,28.3203125,-32.71484375,-12.6953125,22.4609375
9,1734037504701.0312,20.99609375,-48.33984375,-18.5546875,3.90625
10,1734037504704.9375,-28.3203125,-40.52734375,-10.7421875,-61.03515625
11,1734037504708.8438,-21.484375,-27.83203125,-7.32421875,-48.828125
0,1734037504712.75,15.13671875,-32.2265625,-8.7890625,12.20703125
1,1734037504716.6562,3.41796875,-28.80859375,-12.20703125,-2.9296875
2,1734037504720.5625,-24.4140625,-27.34375,-16.11328125,-62.5
3,1734037504724.4688,-6.8359375,-28.3203125,-8.7890625,-53.22265625
4,1734037504728.375,23.92578125,-24.90234375,-2.44140625,9.27734375
5,1734037504732.2812,21.97265625,-23.92578125,-3.90625,12.20703125
6,1734037504736.1875,-4.8828125,-26.85546875,-3.41796875,-45.41015625
7,1734037504740.0938,-15.13671875,-30.76171875,5.37109375,-63.4765625
8,1734037504744,9.27734375,-31.73828125,22.4609375,2.9296875
9,1734037504747.9062,21.484375,-28.80859375,29.296875,23.4375
10,1734037504751.8125,11.71875,-27.34375,19.04296875,-29.78515625
11,1734037504755.7188,0.9765625,-31.73828125,23.92578125,-73.73046875
0,1734037504759.625,52.24609375,-42.96875,29.78515625,5.37109375
1,1734037504763.5312,74.70703125,-29.296875,32.2265625,40.0390625
2,1734037504767.4375,28.3203125,-19.04296875,36.62109375,-19.04296875
3,1734037504771.3438,-2.9296875,-35.64453125,30.2734375,-72.265625
4,1734037504775.25,16.11328125,-31.25,41.50390625,-46.875
5,1734037504779.1562,41.9921875,-20.99609375,59.08203125,19.04296875
6,1734037504783.0625,27.83203125,-26.85546875,62.98828125,1.46484375
7,1734037504786.9688,-7.32421875,-39.0625,66.40625,-55.6640625
8,1734037504790.875,2.9296875,-40.52734375,71.2890625,-39.0625
9,1734037504794.7812,32.2265625,-24.90234375,76.171875,0
10,1734037504798.6875,37.59765625,-28.3203125,72.265625,-14.16015625
11,1734037504802.5938,31.25,-45.41015625,73.2421875,-40.52734375
0,1734037504806.5,24.90234375,-44.921875,81.54296875,-44.921875
1,1734037504810.4062,38.57421875,-26.85546875,85.9375,-2.9296875
2,1734037504814.3125,52.24609375,-25.390625,79.1015625,20.99609375
3,1734037504818.2188,45.41015625,-31.73828125,75.1953125,-20.01953125
4,1734037504822.125,21.97265625,-25.390625,73.73046875,-61.03515625
5,1734037504826.0312,27.34375,-21.97265625,68.84765625,-14.6484375
6,1734037504829.9375,52.734375,-22.4609375,71.77734375,34.1796875
7,1734037504833.8438,61.5234375,-29.78515625,71.77734375,17.08984375
8,1734037504837.75,27.83203125,-24.90234375,62.98828125,-60.05859375
9,1734037504841.6562,16.6015625,-7.32421875,67.87109375,-59.08203125
10,1734037504845.5625,65.4296875,-6.8359375,71.77734375,24.90234375
11,1734037504849.4688,54.6875,-14.6484375,67.87109375,22.4609375
0,1734037504853.375,4.39453125,-20.01953125,61.5234375,-60.546875
1,1734037504857.2812,-0.9765625,-14.6484375,55.17578125,-80.56640625
2,1734037504861.1875,33.69140625,-12.20703125,52.734375,-10.25390625
3,1734037504865.0938,46.875,-18.06640625,53.7109375,30.76171875
4,1734037504869,20.5078125,-20.01953125,54.19921875,-41.9921875
5,1734037504872.9062,12.6953125,-19.04296875,52.24609375,-98.14453125
6,1734037504876.8125,46.38671875,-22.4609375,55.6640625,-13.671875
7,1734037504880.7188,65.91796875,-22.94921875,60.05859375,39.0625
8,1734037504884.625,37.59765625,-10.25390625,57.6171875,-22.94921875
9,1734037504888.5312,8.30078125,-6.8359375,50.29296875,-98.6328125
10,1734037504892.4375,42.48046875,-9.765625,52.24609375,-40.0390625
11,1734037504896.3438,72.75390625,-14.16015625,63.4765625,33.69140625
0,1734037504900.25,44.43359375,-20.01953125,70.3125,-3.41796875
1,1734037504904.1562,7.32421875,-32.71484375,71.77734375,-71.2890625
2,1734037504908.0625,16.6015625,-33.203125,69.82421875,-49.8046875
3,1734037504911.9688,40.52734375,-22.94921875,69.3359375,23.92578125
4,1734037504915.875,40.52734375,-17.578125,76.171875,18.06640625
5,1734037504919.7812,13.18359375,-28.3203125,71.77734375,-38.0859375
6,1734037504923.6875,5.859375,-48.33984375,56.640625,-45.8984375
7,1734037504927.5938,30.2734375,-41.015625,57.6171875,1.953125
8,1734037504931.5,26.3671875,-22.4609375,61.5234375,12.6953125
9,1734037504935.4062,0,-26.3671875,57.6171875,-15.13671875
10,1734037504939.3125,-3.90625,-29.78515625,48.828125,-60.546875
11,1734037504943.2188,23.92578125,-27.34375,45.41015625,-12.20703125
0,1734037504947.125,30.76171875,-27.34375,51.7578125,41.50390625
1,1734037504951.0312,18.06640625,-34.1796875,47.36328125,3.90625
2,1734037504954.9375,-13.18359375,-39.0625,39.55078125,-60.546875
3,1734037504958.8438,-6.8359375,-29.296875,41.015625,-33.69140625
4,1734037504962.75,26.85546875,-24.4140625,36.1328125,22.94921875
5,1734037504966.6562,23.92578125,-34.1796875,32.2265625,19.53125
6,1734037504970.5625,0.48828125,-35.15625,28.80859375,-36.62109375
7,1734037504974.4688,-0.48828125,-24.90234375,25.87890625,-56.640625
8,1734037504978.375,20.01953125,-20.5078125,29.296875,6.8359375
9,1734037504982.2812,36.1328125,-23.92578125,29.78515625,32.71484375
10,1734037504986.1875,17.08984375,-38.57421875,26.3671875,-9.27734375
11,1734037504990.0938,-5.37109375,-24.4140625,27.34375,-61.03515625
0,1734037504994,18.06640625,-10.7421875,23.4375,-4.39453125
1,1734037504997.9062,39.55078125,-23.92578125,15.13671875,51.26953125
2,1734037505001.8125,26.85546875,-20.99609375,9.27734375,-7.8125
3,1734037505005.7188,5.859375,-17.578125,2.44140625,-76.171875
4,1734037505009.625,27.34375,-16.11328125,-1.953125,-25.390625
5,1734037505013.5312,42.96875,-17.08984375,0,43.9453125
6,1734037505017.4375,20.99609375,-29.296875,6.34765625,14.16015625
7,1734037505021.3438,-7.8125,-34.1796875,3.41796875,-67.87109375
8,1734037505025.25,-7.8125,-31.25,5.859375,-52.24609375
9,1734037505029.1562,35.64453125,-36.62109375,8.7890625,33.203125
10,1734037505033.0625,40.52734375,-36.1328125,3.90625,21.97265625
11,1734037505036.9688,1.953125,-27.34375,-1.46484375,-68.84765625
0,1734037505040.875,5.37109375,-39.55078125,-8.30078125,-70.3125
1,1734037505044.7812,17.08984375,-41.50390625,-10.25390625,-0.9765625
2,1734037505048.6875,10.7421875,-31.73828125,-7.32421875,11.23046875
3,1734037505052.5938,-3.90625,-31.25,-4.8828125,-48.33984375
4,1734037505056.5,-9.765625,-37.109375,-5.859375,-77.63671875
5,1734037505060.4062,-1.46484375,-39.55078125,-3.90625,-13.671875
6,1734037505064.3125,7.8125,-34.66796875,-1.46484375,13.671875
7,1734037505068.2188,4.8828125,-35.64453125,-0.48828125,-28.80859375
8,1734037505072.125,-20.01953125,-47.8515625,2.44140625,-68.84765625
9,1734037505076.0312,-9.27734375,-50.78125,8.7890625,-1.953125
10,1734037505079.9375,6.34765625,-31.25,15.13671875,37.109375
11,1734037505083.8438,-10.7421875,-22.94921875,12.6953125,-14.6484375
0,1734037505087.75,-30.2734375,-34.66796875,10.25390625,-65.91796875
1,1734037505091.6562,-37.59765625,-34.66796875,14.6484375,-44.921875
2,1734037505095.5625,-23.92578125,-23.4375,26.3671875,20.01953125
3,1734037505099.4688,-12.6953125,-25.87890625,30.76171875,20.99609375
4,1734037505103.375,-31.25,-41.50390625,22.94921875,-46.875
5,1734037505107.2812,-35.15625,-43.9453125,17.08984375,-59.08203125
6,1734037505111.1875,-7.8125,-37.109375,23.92578125,17.578125
7,1734037505115.0938,-9.27734375,-33.203125,28.3203125,27.34375
8,1734037505119,-30.2734375,-44.921875,20.01953125,-23.92578125
9,1734037505122.9062,-56.15234375,-50.78125,19.04296875,-78.125
10,1734037505126.8125,-43.45703125,-36.1328125,24.90234375,-38.57421875
11,1734037505130.7188,-12.6953125,-40.52734375,28.3203125,21.484375
0,1734037505134.625,-11.71875,-49.8046875,26.3671875,-6.34765625
1,1734037505138.5312,-33.69140625,-42.96875,24.4140625,-62.5
2,1734037505142.4375,-26.85546875,-36.1328125,22.94921875,-35.15625
3,1734037505146.3438,-1.953125,-41.50390625,19.53125,29.78515625
4,1734037505150.25,-3.90625,-39.55078125,18.06640625,16.11328125
5,1734037505154.1562,-26.85546875,-38.57421875,13.671875,-61.5234375
6,1734037505158.0625,-30.76171875,-42.96875,12.6953125,-52.24609375
7,1734037505161.9688,-5.859375,-43.45703125,12.20703125,24.90234375
8,1734037505165.875,1.46484375,-49.8046875,4.39453125,45.41015625
9,1734037505169.7812,-20.99609375,-36.62109375,5.859375,-28.3203125
10,1734037505173.6875,-23.92578125,-20.99609375,8.30078125,-65.91796875
11,1734037505177.5938,-6.34765625,-22.94921875,5.37109375,17.578125
0,1734037505181.5,4.8828125,-26.3671875,7.32421875,51.7578125
1,1734037505185.4062,-0.48828125,-29.296875,4.39453125,-5.37109375
2,1734037505189.3125,-22.94921875,-35.64453125,-0.9765625,-53.7109375
3,1734037505193.2188,-5.859375,-39.55078125,-1.953125,7.32421875
4,1734037505197.125,15.13671875,-35.64453125,-1.953125,56.15234375
5,1734037505201.0312,17.578125,-32.71484375,2.44140625,27.34375
6,1734037505204.9375,3.41796875,-38.0859375,-5.37109375,-33.69140625
7,1734037505208.8438,4.39453125,-48.33984375,-14.6484375,2.9296875
8,1734037505212.75,15.625,-41.9921875,-8.30078125,65.4296875
9,1734037505216.6562,12.20703125,-28.80859375,-6.8359375,35.15625
10,1734037505220.5625,-4.8828125,-45.41015625,-14.16015625,-18.06640625
11,1734037505224.4688,-1.46484375,-48.33984375,-12.6953125,-18.06640625
0,1734037505228.375,21.484375,-38.57421875,-10.25390625,44.921875
1,1734037505232.2812,18.06640625,-42.96875,-12.6953125,52.734375
2,1734037505236.1875,1.953125,-52.734375,-6.8359375,-5.859375
3,1734037505240.0938,5.37109375,-50.78125,3.90625,-30.76171875
4,1734037505244,39.55078125,-35.64453125,14.16015625,41.50390625
5,1734037505247.9062,46.875,-37.109375,20.01953125,87.890625
6,1734037505251.8125,40.0390625,-45.41015625,19.53125,51.7578125
7,1734037505255.7188,35.15625,-55.17578125,18.06640625,1.953125
8,1734037505259.625,43.45703125,-40.52734375,20.99609375,23.92578125
9,1734037505263.5312,38.57421875,-37.109375,21.484375,63.4765625
10,1734037505267.4375,32.2265625,-56.640625,20.01953125,56.15234375
11,1734037505271.3438,22.4609375,-59.5703125,20.01953125,0.9765625
0,1734037505275.25,10.25390625,-39.0625,18.5546875,2.9296875
1,1734037505279.1562,32.2265625,-38.0859375,12.6953125,71.2890625
2,1734037505283.0625,37.59765625,-47.36328125,8.30078125,65.4296875
3,1734037505286.9688,14.6484375,-45.41015625,2.9296875,-4.8828125
4,1734037505290.875,9.27734375,-44.43359375,-2.44140625,-11.23046875
5,1734037505294.7812,31.25,-42.96875,0,69.3359375
6,1734037505298.6875,49.8046875,-45.8984375,-2.9296875,90.33203125
7,1734037505302.5938,36.62109375,-40.52734375,-14.16015625,12.20703125
8,1734037505306.5,11.23046875,-36.1328125,-22.4609375,-43.9453125
9,1734037505310.4062,27.83203125,-36.62109375,-28.80859375,20.99609375
10,1734037505314.3125,45.41015625,-36.62109375,-28.3203125,62.98828125
11,1734037505318.2188,20.5078125,-38.57421875,-28.3203125,11.71875
0,1734037505322.125,-4.8828125,-44.921875,-35.15625,-55.17578125
1,1734037505326.0312,20.01953125,-40.52734375,-34.1796875,-8.7890625
2,1734037505329.9375,36.62109375,-34.66796875,-40.52734375,42.48046875
3,1734037505333.8438,18.5546875,-32.71484375,-43.9453125,8.30078125
4,1734037505337.75,-7.32421875,-33.203125,-42.96875,-48.33984375
5,1734037505341.6562,-12.20703125,-42.48046875,-48.828125,-36.1328125
6,1734037505345.5625,6.8359375,-41.50390625,-45.41015625,34.1796875
7,1734037505349.4688,21.484375,-28.80859375,-41.015625,24.4140625
8,1734037505353.375,9.27734375,-22.4609375,-44.43359375,-59.08203125
9,1734037505357.2812,-8.30078125,-32.2265625,-48.33984375,-67.3828125
10,1734037505361.1875,13.18359375,-41.015625,-46.38671875,17.578125
11,1734037505365.0938,12.20703125,-31.25,-41.9921875,16.6015625
0,1734037505369,-10.7421875,-28.80859375,-50.29296875,-50.78125
1,1734037505372.9062,-20.99609375,-39.55078125,-54.6875,-80.56640625
2,1734037505376.8125,-13.671875,-32.2265625,-48.828125,-11.71875
3,1734037505380.7188,5.37109375,-18.06640625,-43.45703125,25.390625
4,1734037505384.625,-11.71875,-24.4140625,-38.0859375,-15.13671875
5,1734037505388.5312,-45.41015625,-34.1796875,-37.109375,-70.80078125
6,1734037505392.4375,-25.390625,-30.76171875,-45.8984375,-51.26953125
7,1734037505396.3438,-15.625,-21.97265625,-47.8515625,2.44140625
8,1734037505400.25,-23.92578125,-28.3203125,-46.38671875,-8.30078125
9,1734037505404.1562,-33.69140625,-38.0859375,-55.6640625,-69.3359375
10,1734037505408.0625,-56.15234375,-32.2265625,-60.05859375,-81.54296875
11,1734037505411.9688,-43.9453125,-26.85546875,-53.7109375,-22.94921875
0,1734037505415.875,-37.109375,-33.69140625,-56.640625,-4.39453125
1,1734037505419.7812,-62.5,-39.55078125,-62.5,-69.3359375
2,1734037505423.6875,-70.3125,-38.0859375,-62.98828125,-113.76953125
3,1734037505427.5938,-46.875,-36.62109375,-65.91796875,-56.640625
4,1734037505431.5,-46.38671875,-45.41015625,-71.2890625,-23.4375
5,1734037505435.4062,-72.75390625,-54.19921875,-69.3359375,-67.87109375
6,1734037505439.3125,-80.56640625,-50.29296875,-68.84765625,-118.65234375
7,1734037505443.2188,-76.171875,-44.921875,-70.3125,-70.80078125
8,1734037505447.125,-72.75390625,-48.828125,-71.77734375,-11.23046875
9,1734037505451.0312,-80.078125,-51.7578125,-79.1015625,-47.8515625
10,1734037505454.9375,-107.421875,-42.48046875,-81.54296875,-138.18359375
11,1734037505458.8438,-99.12109375,-46.38671875,-79.1015625,-110.83984375
0,1734037505462.75,-60.05859375,-52.24609375,-78.125,-27.83203125
1,1734037505466.6562,-57.6171875,-53.7109375,-77.1484375,-44.921875
2,1734037505470.5625,-79.1015625,-49.31640625,-75.68359375,-114.74609375
3,1734037505474.4688,-68.84765625,-45.41015625,-79.58984375,-104.4921875
4,1734037505478.375,-35.15625,-50.78125,-83.984375,-5.859375
5,1734037505482.2812,-16.11328125,-49.8046875,-82.51953125,21.484375
6,1734037505486.1875,-40.52734375,-39.0625,-80.56640625,-70.3125
7,1734037505490.0938,-56.15234375,-41.50390625,-84.9609375,-114.2578125
8,1734037505494,-37.59765625,-44.921875,-91.796875,-41.9921875
9,1734037505497.9062,-40.0390625,-41.015625,-95.21484375,-15.625
10,1734037505501.8125,-59.08203125,-45.41015625,-104.00390625,-74.21875
11,1734037505505.7188,-62.98828125,-46.875,-110.83984375,-122.55859375
0,1734037505509.625,-39.55078125,-44.921875,-104.00390625,-55.17578125
1,1734037505513.5312,-26.85546875,-39.55078125,-101.07421875,3.41796875
2,1734037505517.4375,-37.109375,-39.0625,-102.05078125,-32.2265625
3,1734037505521.3438,-53.7109375,-46.38671875,-101.5625,-86.42578125
4,1734037505525.25,-37.109375,-44.921875,-94.23828125,-58.59375
5,1734037505529.1562,-14.16015625,-39.0625,-86.9140625,9.27734375
6,1734037505533.0625,-28.3203125,-43.45703125,-86.9140625,-5.37109375
7,1734037505536.9688,-53.22265625,-49.31640625,-89.84375,-73.73046875
8,1734037505540.875,-50.29296875,-58.59375,-88.37890625,-62.98828125
9,1734037505544.7812,-45.41015625,-49.31640625,-77.63671875,6.34765625
10,1734037505548.6875,-45.41015625,-33.69140625,-71.2890625,1.46484375
11,1734037505552.5938,-43.9453125,-41.50390625,-70.80078125,-54.6875
0,1734037505556.5,-55.17578125,-46.875,-73.2421875,-98.14453125
1,1734037505560.4062,-36.62109375,-42.96875,-69.3359375,-39.0625
2,1734037505564.3125,-16.6015625,-45.8984375,-63.4765625,15.625
3,1734037505568.2188,-25.87890625,-50.29296875,-62.5,-15.13671875
4,1734037505572.125,-48.33984375,-50.29296875,-59.5703125,-77.1484375
5,1734037505576.0312,-37.59765625,-45.8984375,-52.734375,-33.203125
6,1734037505579.9375,-17.578125,-40.52734375,-51.26953125,26.85546875
7,1734037505583.8438,-7.8125,-45.41015625,-49.8046875,10.25390625
8,1734037505587.75,-30.2734375,-51.26953125,-45.8984375,-52.734375
9,1734037505591.6562,-44.43359375,-35.15625,-44.43359375,-57.12890625
10,1734037505595.5625,-9.27734375,-28.3203125,-38.57421875,21.484375
11,1734037505599.4688,0,-36.62109375,-33.203125,38.0859375
0,1734037505603.375,-31.73828125,-36.62109375,-32.2265625,-24.90234375
1,1734037505607.2812,-40.0390625,-32.71484375,-30.2734375,-62.01171875
2,1734037505611.1875,-11.71875,-31.73828125,-22.94921875,14.16015625
3,1734037505615.0938,-1.46484375,-30.76171875,-21.484375,50.78125
4,1734037505619,-20.01953125,-31.25,-25.87890625,-16.11328125
5,1734037505622.9062,-38.0859375,-35.15625,-26.3671875,-64.453125
6,1734037505626.8125,-17.08984375,-32.71484375,-24.90234375,10.25390625
7,1734037505630.7188,3.41796875,-33.203125,-28.80859375,73.73046875
8,1734037505634.625,-22.4609375,-27.83203125,-30.76171875,8.30078125
9,1734037505638.5312,-51.26953125,-25.390625,-31.25,-75.1953125
10,1734037505642.4375,-35.64453125,-34.66796875,-30.2734375,-28.80859375
11,1734037505646.3438,-11.23046875,-32.71484375,-26.3671875,29.78515625
0,1734037505650.25,-23.92578125,-25.390625,-32.71484375,-7.8125
1,1734037505654.1562,-42.48046875,-32.71484375,-42.48046875,-81.0546875
2,1734037505658.0625,-35.64453125,-38.0859375,-37.59765625,-78.125
3,1734037505661.9688,-28.3203125,-37.59765625,-32.2265625,6.34765625
4,1734037505665.875,-31.73828125,-31.73828125,-33.69140625,17.578125
5,1734037505669.7812,-39.55078125,-39.55078125,-39.0625,-46.875
6,1734037505673.6875,-42.96875,-52.24609375,-48.33984375,-68.84765625
7,1734037505677.5938,-24.4140625,-38.0859375,-41.9921875,-5.37109375
8,1734037505681.5,-9.27734375,-18.5546875,-35.64453125,12.20703125
9,1734037505685.4062,-16.6015625,-22.4609375,-42.48046875,-36.1328125
10,1734037505689.3125,-30.2734375,-31.73828125,-43.45703125,-84.47265625
11,1734037505693.2188,-13.18359375,-26.85546875,-38.57421875,-28.80859375
0,1734037505697.125,0,-20.5078125,-43.45703125,28.3203125
1,1734037505701.0312,-16.6015625,-28.3203125,-47.36328125,0
2,1734037505704.9375,-42.96875,-32.2265625,-49.31640625,-68.84765625
3,1734037505708.8438,-35.64453125,-24.90234375,-48.33984375,-59.5703125
4,1734037505712.75,-9.765625,-24.90234375,-43.45703125,11.71875
5,1734037505716.6562,-14.16015625,-29.78515625,-55.6640625,10.7421875
6,1734037505720.5625,-25.390625,-33.69140625,-62.01171875,-58.59375
7,1734037505724.4688,-31.73828125,-33.69140625,-61.03515625,-76.171875
8,1734037505728.375,-28.80859375,-29.296875,-63.4765625,-13.671875
9,1734037505732.2812,-21.97265625,-32.2265625,-63.96484375,14.6484375
10,1734037505736.1875,-27.83203125,-34.1796875,-62.98828125,-30.2734375
11,1734037505740.0938,-43.45703125,-21.97265625,-62.01171875,-83.49609375
0,1734037505744,-21.97265625,-23.92578125,-64.453125,-21.484375
1,1734037505747.9062,13.671875,-30.76171875,-62.01171875,27.83203125
2,1734037505751.8125,4.8828125,-29.78515625,-62.01171875,-12.20703125
3,1734037505755.7188,-29.296875,-33.203125,-68.359375,-67.3828125
4,1734037505759.625,-23.92578125,-32.2265625,-72.265625,-35.15625
5,1734037505763.5312,-0.48828125,-34.1796875,-77.1484375,29.78515625
6,1734037505767.4375,-1.46484375,-33.69140625,-81.0546875,8.30078125
7,1734037505771.3438,-22.94921875,-21.97265625,-76.66015625,-77.63671875
8,1734037505775.25,0.48828125,-25.87890625,-73.73046875,-52.734375
9,1734037505779.1562,25.87890625,-27.83203125,-79.1015625,35.15625
10,1734037505783.0625,27.34375,-22.4609375,-77.1484375,47.8515625
11,1734037505786.9688,16.6015625,-31.25,-72.75390625,-15.625
0,1734037505790.875,-0.9765625,-38.57421875,-75.1953125,-39.0625
1,1734037505794.7812,13.18359375,-35.15625,-77.1484375,35.15625
2,1734037505798.6875,15.13671875,-33.203125,-84.47265625,51.7578125
3,1734037505802.5938,-8.30078125,-45.41015625,-87.40234375,-4.8828125
4,1734037505806.5,-15.625,-54.19921875,-84.47265625,-42.48046875
5,1734037505810.4062,2.9296875,-48.33984375,-83.0078125,14.6484375
6,1734037505814.3125,6.34765625,-51.7578125,-89.84375,48.33984375
7,1734037505818.2188,-4.8828125,-54.6875,-91.796875,-0.48828125
8,1734037505822.125,-23.4375,-55.6640625,-91.30859375,-62.5
9,1734037505826.0312,-2.44140625,-64.94140625,-92.28515625,-8.7890625
10,1734037505829.9375,9.27734375,-53.7109375,-83.984375,42.96875
11,1734037505833.8438,-11.23046875,-45.41015625,-80.56640625,-1.46484375
0,1734037505837.75,-23.92578125,-55.6640625,-80.078125,-66.40625
1,1734037505841.6562,-27.34375,-47.36328125,-80.078125,-63.96484375
2,1734037505845.5625,-15.13671875,-34.1796875,-71.2890625,10.7421875
3,1734037505849.4688,-6.34765625,-34.1796875,-66.89453125,22.94921875
4,1734037505853.375,-20.01953125,-38.0859375,-72.265625,-40.52734375
5,1734037505857.2812,-39.0625,-37.59765625,-66.89453125,-76.171875
6,1734037505861.1875,-13.18359375,-35.15625,-62.01171875,-7.32421875
7,1734037505865.0938,-4.39453125,-31.73828125,-62.98828125,22.4609375
8,1734037505869,-7.32421875,-26.3671875,-55.17578125,-10.7421875
9,1734037505872.9062,-6.8359375,-18.5546875,-41.50390625,-48.33984375
10,1734037505876.8125,-25.87890625,-16.11328125,-49.31640625,-39.55078125
11,1734037505880.7188,-30.2734375,-27.83203125,-64.94140625,2.44140625
0,1734037505884.625,-30.76171875,-35.64453125,-61.03515625,-34.1796875
1,1734037505888.5312,-58.59375,-31.73828125,-39.0625,-111.328125
2,1734037505892.4375,-63.4765625,-33.69140625,-21.97265625,-71.77734375
3,1734037505896.3438,-36.1328125,-40.0390625,-15.625,6.8359375
4,1734037505900.25,-38.0859375,-43.45703125,-10.25390625,-13.671875
5,1734037505904.1562,-61.5234375,-46.875,-5.859375,-81.54296875
6,1734037505908.0625,-58.10546875,-41.9921875,-0.48828125,-86.42578125
7,1734037505911.9688,-29.78515625,-36.1328125,5.859375,-9.765625
8,1734037505915.875,-4.8828125,-48.828125,9.765625,26.85546875
9,1734037505919.7812,-24.4140625,-43.45703125,12.20703125,-47.36328125
10,1734037505923.6875,-56.15234375,-36.62109375,16.6015625,-105.95703125
11,1734037505927.5938,-26.85546875,-47.36328125,23.92578125,-19.53125
0,1734037505931.5,-8.30078125,-40.52734375,30.2734375,32.71484375
1,1734037505935.4062,-26.3671875,-33.203125,31.73828125,-26.85546875
2,1734037505939.3125,-42.96875,-45.41015625,31.25,-87.40234375
3,1734037505943.2188,-23.92578125,-43.9453125,40.0390625,-31.73828125
4,1734037505947.125,-3.90625,-40.52734375,43.9453125,19.04296875
5,1734037505951.0312,-16.11328125,-48.33984375,34.66796875,-17.578125
6,1734037505954.9375,-43.9453125,-53.7109375,27.34375,-92.7734375
7,1734037505958.8438,-20.99609375,-53.22265625,28.3203125,-69.82421875
8,1734037505962.75,11.23046875,-33.203125,39.0625,7.8125
9,1734037505966.6562,-6.8359375,-18.06640625,40.0390625,-6.8359375
10,1734037505970.5625,-23.92578125,-26.85546875,32.2265625,-66.89453125
11,1734037505974.4688,-38.0859375,-41.9921875,25.87890625,-76.171875
0,1734037505978.375,-18.5546875,-41.50390625,33.69140625,-1.953125
1,1734037505982.2812,-8.7890625,-36.62109375,33.69140625,10.7421875
2,1734037505986.1875,-36.62109375,-42.48046875,24.4140625,-58.10546875
3,1734037505990.0938,-50.29296875,-40.0390625,24.90234375,-91.796875
4,1734037505994,-28.3203125,-28.80859375,28.80859375,-34.66796875
5,1734037505997.9062,-2.44140625,-31.25,31.73828125,8.7890625
6,1734037506001.8125,-18.5546875,-40.0390625,27.34375,-19.04296875
7,1734037506005.7188,-45.8984375,-42.48046875,19.53125,-68.359375
8,1734037506009.625,-33.69140625,-26.3671875,20.5078125,-46.875
9,1734037506013.5312,-17.08984375,-22.4609375,25.390625,4.8828125
10,1734037506017.4375,-13.671875,-38.57421875,26.85546875,4.39453125
11,1734037506021.3438,-30.76171875,-39.55078125,24.4140625,-61.5234375
0,1734037506025.25,-40.52734375,-28.80859375,24.90234375,-63.4765625
1,1734037506029.1562,-20.01953125,-26.85546875,23.92578125,15.13671875
2,1734037506033.0625,-18.06640625,-23.92578125,17.578125,10.25390625
3,1734037506036.9688,-36.1328125,-21.484375,11.23046875,-62.01171875
4,1734037506040.875,-31.73828125,-24.90234375,15.13671875,-67.87109375
5,1734037506044.7812,-6.8359375,-25.390625,27.34375,17.08984375
6,1734037506048.6875,0.9765625,-33.69140625,25.87890625,58.59375
7,1734037506052.5938,-14.6484375,-32.71484375,16.11328125,-11.71875
8,1734037506056.5,-41.50390625,-13.18359375,17.08984375,-87.890625
9,1734037506060.4062,-14.6484375,-10.7421875,16.11328125,-23.4375
10,1734037506064.3125,9.27734375,-14.16015625,14.6484375,38.0859375
11,1734037506068.2188,-18.06640625,-16.6015625,17.578125,5.37109375
0,1734037506072.125,-41.015625,-22.4609375,11.71875,-64.94140625
1,1734037506076.0312,-28.80859375,-29.296875,8.30078125,-32.71484375
2,1734037506079.9375,-11.23046875,-29.296875,11.23046875,33.69140625
3,1734037506083.8438,-19.53125,-27.83203125,10.25390625,7.8125
4,1734037506087.75,-35.64453125,-34.1796875,7.8125,-63.4765625
5,1734037506091.6562,-20.5078125,-41.50390625,3.90625,-46.38671875
6,1734037506095.5625,3.41796875,-41.9921875,1.953125,35.15625
7,1734037506099.4688,3.90625,-36.62109375,0.48828125,35.64453125
8,1734037506103.375,-19.53125,-36.1328125,-3.90625,-35.15625
9,1734037506107.2812,-28.80859375,-44.43359375,-6.8359375,-51.26953125
10,1734037506111.1875,8.7890625,-50.29296875,-5.859375,28.3203125
11,1734037506115.0938,12.6953125,-36.62109375,-4.8828125,47.36328125
0,1734037506119,-7.8125,-30.76171875,-6.8359375,-0.48828125
1,1734037506122.9062,-11.71875,-52.734375,-10.25390625,-38.0859375
2,1734037506126.8125,8.7890625,-55.6640625,-0.9765625,19.04296875
3,1734037506130.7188,17.08984375,-40.52734375,6.8359375,62.98828125
4,1734037506134.625,14.16015625,-42.48046875,-0.9765625,30.2734375
5,1734037506138.5312,-13.671875,-48.33984375,-10.25390625,-43.9453125
6,1734037506142.4375,-21.484375,-52.24609375,-10.25390625,-21.97265625
7,1734037506146.3438,2.44140625,-50.29296875,-5.37109375,53.22265625
8,1734037506150.25,12.20703125,-49.31640625,-1.953125,37.59765625
9,1734037506154.1562,-3.90625,-63.96484375,-5.859375,-20.01953125
10,1734037506158.0625,-19.53125,-61.03515625,-7.8125,-35.64453125
11,1734037506161.9688,-0.48828125,-44.921875,-1.953125,8.30078125
0,1734037506165.875,10.7421875,-47.8515625,-5.37109375,31.73828125
1,1734037506169.7812,-6.8359375,-54.19921875,-10.7421875,-28.80859375
2,1734037506173.6875,-17.08984375,-54.19921875,-7.32421875,-70.3125
3,1734037506177.5938,10.25390625,-45.8984375,-2.9296875,0
4,1734037506181.5,31.25,-47.36328125,-2.9296875,42.48046875
5,1734037506185.4062,16.11328125,-53.22265625,-4.8828125,4.8828125
6,1734037506189.3125,-8.30078125,-49.8046875,-5.859375,-60.546875
7,1734037506193.2188,7.8125,-43.9453125,-2.44140625,-20.01953125
8,1734037506197.125,36.62109375,-39.0625,-3.41796875,45.41015625
9,1734037506201.0312,19.04296875,-41.015625,-7.32421875,34.1796875
10,1734037506204.9375,-23.92578125,-39.55078125,-5.859375,-58.10546875
11,1734037506208.8438,-18.5546875,-40.52734375,-9.765625,-56.640625
0,1734037506212.75,23.92578125,-47.36328125,-9.765625,40.0390625
1,1734037506216.6562,22.94921875,-40.0390625,-0.9765625,36.1328125
2,1734037506220.5625,-17.08984375,-29.296875,1.953125,-35.64453125
3,1734037506224.4688,-26.85546875,-27.83203125,-0.48828125,-52.734375
4,1734037506228.375,0,-28.80859375,5.37109375,16.6015625
5,1734037506232.2812,14.6484375,-34.1796875,7.8125,45.8984375
6,1734037506236.1875,-3.90625,-35.64453125,3.41796875,-15.13671875
7,1734037506240.0938,-15.625,-29.78515625,2.44140625,-70.3125
8,1734037506244,16.6015625,-34.66796875,4.39453125,7.32421875
9,1734037506247.9062,31.25,-30.76171875,3.90625,55.6640625
10,1734037506251.8125,-5.859375,-28.80859375,-1.46484375,-5.37109375
11,1734037506255.7188,-34.1796875,-42.48046875,-7.32421875,-74.70703125
0,1734037506259.625,-15.625,-42.96875,-7.32421875,-32.2265625
1,1734037506263.5312,0.48828125,-34.1796875,-9.27734375,30.76171875
2,1734037506267.4375,-8.7890625,-37.109375,-10.25390625,3.41796875
3,1734037506271.3438,-33.69140625,-47.36328125,-5.37109375,-57.12890625
4,1734037506275.25,-35.15625,-51.7578125,-7.32421875,-42.96875
5,1734037506279.1562,-2.44140625,-37.109375,-8.7890625,20.01953125
6,1734037506283.0625,3.41796875,-27.83203125,-11.71875,24.90234375
7,1734037506286.9688,-27.34375,-43.45703125,-14.6484375,-37.109375
8,1734037506290.875,-34.66796875,-58.10546875,-9.765625,-46.38671875
9,1734037506294.7812,-15.625,-38.0859375,-2.9296875,8.30078125
10,1734037506298.6875,-5.37109375,-23.92578125,-1.46484375,21.484375
11,1734037506302.5938,-19.04296875,-34.1796875,-6.34765625,-27.34375
0,1734037506306.5,-44.43359375,-36.62109375,-10.7421875,-89.35546875
1,1734037506310.4062,-34.1796875,-36.1328125,-10.25390625,-32.2265625
2,1734037506314.3125,-28.3203125,-40.52734375,-8.7890625,22.94921875
3,1734037506318.2188,-30.2734375,-45.8984375,-14.6484375,-5.859375
4,1734037506322.125,-37.109375,-41.015625,-18.06640625,-79.1015625
5,1734037506326.0312,-25.390625,-31.73828125,-13.671875,-44.921875
6,1734037506329.9375,-6.8359375,-26.85546875,-9.765625,28.3203125
7,1734037506333.8438,-8.30078125,-32.2265625,-12.6953125,20.01953125
8,1734037506337.75,-41.9921875,-37.109375,-16.6015625,-53.22265625
9,1734037506341.6562,-57.12890625,-26.85546875,-16.6015625,-84.47265625
10,1734037506345.5625,-21.484375,-25.390625,-26.85546875,-10.25390625
11,1734037506349.4688,-15.625,-30.76171875,-31.25,13.18359375
0,1734037506353.375,-42.96875,-40.0390625,-34.1796875,-53.22265625
1,1734037506357.2812,-54.19921875,-41.9921875,-32.2265625,-85.9375
2,1734037506361.1875,-25.87890625,-48.828125,-21.484375,-0.48828125
3,1734037506365.0938,-19.04296875,-54.6875,-21.97265625,40.0390625
4,1734037506369,-54.6875,-54.6875,-32.2265625,-26.3671875
5,1734037506372.9062,-75.1953125,-58.10546875,-39.55078125,-85.44921875
6,1734037506376.8125,-48.828125,-54.6875,-36.1328125,-26.85546875
7,1734037506380.7188,-27.34375,-53.7109375,-32.2265625,37.109375
8,1734037506384.625,-39.55078125,-46.875,-38.57421875,-9.765625
9,1734037506388.5312,-65.4296875,-42.96875,-46.38671875,-92.7734375
10,1734037506392.4375,-58.59375,-56.640625,-42.96875,-62.5
11,1734037506396.3438,-20.5078125,-57.12890625,-38.0859375,23.4375
0,1734037506400.25,-27.34375,-41.50390625,-38.0859375,-3.41796875
1,1734037506404.1562,-62.01171875,-45.41015625,-42.96875,-83.0078125
2,1734037506408.0625,-69.82421875,-47.36328125,-45.8984375,-91.796875
3,1734037506411.9688,-38.0859375,-44.921875,-39.0625,-18.06640625
4,1734037506415.875,-22.94921875,-46.38671875,-31.73828125,6.34765625
5,1734037506419.7812,-42.96875,-50.29296875,-31.73828125,-54.6875
6,1734037506423.6875,-41.015625,-58.59375,-40.52734375,-87.40234375
7,1734037506427.5938,-24.90234375,-47.8515625,-38.57421875,-16.11328125
8,1734037506431.5,-30.76171875,-38.0859375,-27.83203125,8.7890625
9,1734037506435.4062,-40.0390625,-49.8046875,-22.94921875,-27.34375
10,1734037506439.3125,-60.546875,-48.828125,-21.97265625,-78.125
11,1734037506443.2188,-41.9921875,-35.64453125,-24.4140625,-47.8515625
0,1734037506447.125,-13.18359375,-33.69140625,-25.87890625,14.6484375
1,1734037506451.0312,-24.90234375,-46.875,-32.71484375,-2.44140625
2,1734037506454.9375,-48.33984375,-57.6171875,-34.1796875,-77.1484375
3,1734037506458.8438,-47.36328125,-58.59375,-30.76171875,-67.3828125
4,1734037506462.75,-23.4375,-51.26953125,-29.78515625,18.06640625
5,1734037506466.6562,-19.04296875,-59.08203125,-35.15625,23.4375
6,1734037506470.5625,-35.64453125,-69.3359375,-41.50390625,-45.8984375
7,1734037506474.4688,-42.48046875,-56.640625,-34.66796875,-74.70703125
8,1734037506478.375,-25.87890625,-44.921875,-26.85546875,-6.34765625
9,1734037506482.2812,-12.20703125,-50.29296875,-32.71484375,31.73828125
10,1734037506486.1875,-24.4140625,-51.7578125,-37.109375,-24.90234375
11,1734037506490.0938,-48.33984375,-42.96875,-36.1328125,-87.890625
0,1734037506494,-19.04296875,-38.0859375,-33.203125,-18.06640625
1,1734037506497.9062,13.671875,-41.9921875,-26.85546875,52.24609375
2,1734037506501.8125,-4.8828125,-37.59765625,-29.296875,-4.8828125
3,1734037506505.7188,-39.0625,-31.25,-35.64453125,-86.42578125
4,1734037506509.625,-27.34375,-34.1796875,-33.69140625,-37.109375
5,1734037506513.5312,1.953125,-31.73828125,-28.3203125,40.52734375
6,1734037506517.4375,-14.16015625,-33.203125,-28.3203125,15.625
7,1734037506521.3438,-49.8046875,-33.203125,-34.66796875,-61.5234375
8,1734037506525.25,-44.921875,-29.296875,-39.0625,-54.6875
9,1734037506529.1562,-4.39453125,-25.87890625,-41.50390625,31.25
10,1734037506533.0625,-13.18359375,-27.83203125,-38.57421875,28.3203125
11,1734037506536.9688,-50.78125,-36.1328125,-43.9453125,-45.8984375
0,1734037506540.875,-64.453125,-42.96875,-53.7109375,-63.4765625
1,1734037506544.7812,-41.9921875,-40.52734375,-55.17578125,13.18359375
2,1734037506548.6875,-16.6015625,-30.76171875,-54.19921875,42.96875
3,1734037506552.5938,-32.2265625,-30.2734375,-60.546875,-22.4609375
4,1734037506556.5,-52.24609375,-40.0390625,-65.91796875,-75.68359375
5,1734037506560.4062,-23.92578125,-36.1328125,-62.98828125,-8.30078125
6,1734037506564.3125,-5.37109375,-29.78515625,-61.03515625,49.8046875
7,1734037506568.2188,-20.01953125,-29.296875,-60.546875,4.39453125
8,1734037506572.125,-51.26953125,-31.25,-62.5,-64.453125
9,1734037506576.0312,-33.203125,-42.96875,-63.96484375,-10.25390625
10,1734037506579.9375,-14.6484375,-32.2265625,-53.7109375,42.48046875
11,1734037506583.8438,-38.57421875,-22.94921875,-55.17578125,3.41796875
0,1734037506587.75,-60.05859375,-40.0390625,-62.98828125,-47.8515625
1,1734037506591.6562,-62.5,-37.109375,-61.03515625,-43.9453125
2,1734037506595.5625,-32.71484375,-22.94921875,-59.08203125,25.390625
3,1734037506599.4688,-16.6015625,-26.3671875,-56.640625,32.71484375
4,1734037506603.375,-38.0859375,-35.64453125,-62.01171875,-21.484375
5,1734037506607.2812,-52.734375,-37.109375,-61.5234375,-57.6171875
6,1734037506611.1875,-24.90234375,-30.2734375,-54.19921875,1.46484375
7,1734037506615.0938,-15.13671875,-23.4375,-56.640625,34.66796875
8,1734037506619,-20.01953125,-35.64453125,-63.96484375,4.39453125
9,1734037506622.9062,-43.45703125,-40.52734375,-65.4296875,-63.4765625
10,1734037506626.8125,-46.875,-25.87890625,-63.4765625,-51.26953125
11,1734037506630.7188,-10.25390625,-25.390625,-61.5234375,36.1328125
0,1734037506634.625,-16.11328125,-24.4140625,-59.5703125,28.80859375
1,1734037506638.5312,-52.734375,-22.94921875,-62.01171875,-49.31640625
2,1734037506642.4375,-50.78125,-27.83203125,-63.4765625,-32.71484375
3,1734037506646.3438,1.46484375,-34.1796875,-61.5234375,59.5703125
4,1734037506650.25,2.9296875,-38.0859375,-64.94140625,50.78125
5,1734037506654.1562,-49.8046875,-42.48046875,-72.75390625,-40.52734375
6,1734037506658.0625,-51.26953125,-40.52734375,-70.3125,-56.640625
7,1734037506661.9688,-12.20703125,-37.109375,-68.359375,19.04296875
8,1734037506665.875,6.8359375,-46.38671875,-70.80078125,62.01171875
9,1734037506669.7812,-21.97265625,-41.015625,-64.94140625,-1.953125
10,1734037506673.6875,-53.22265625,-30.2734375,-58.10546875,-65.91796875
11,1734037506677.5938,-24.4140625,-37.109375,-60.546875,6.34765625
0,1734037506681.5,6.34765625,-33.69140625,-57.6171875,59.08203125
1,1734037506685.4062,-1.953125,-27.83203125,-57.12890625,19.04296875
2,1734037506689.3125,-35.15625,-34.1796875,-68.84765625,-53.7109375
3,1734037506693.2188,-27.34375,-36.1328125,-66.89453125,-23.4375
4,1734037506697.125,-1.46484375,-31.25,-63.4765625,51.7578125
5,1734037506701.0312,-6.34765625,-36.1328125,-65.91796875,30.76171875
6,1734037506704.9375,-33.69140625,-44.43359375,-70.80078125,-48.828125
7,1734037506708.8438,-23.92578125,-44.921875,-74.21875,-28.80859375
8,1734037506712.75,8.7890625,-29.78515625,-68.84765625,49.8046875
9,1734037506716.6562,-6.34765625,-26.3671875,-68.84765625,38.0859375
10,1734037506720.5625,-37.59765625,-39.0625,-77.63671875,-33.203125
11,1734037506724.4688,-36.62109375,-37.109375,-79.58984375,-57.6171875
0,1734037506728.375,-11.71875,-32.2265625,-72.265625,15.13671875
1,1734037506732.2812,-0.9765625,-32.71484375,-74.21875,52.734375
2,1734037506736.1875,-12.6953125,-38.0859375,-80.56640625,0
3,1734037506740.0938,-37.109375,-44.921875,-83.0078125,-54.6875
4,1734037506744,-13.671875,-39.55078125,-76.171875,10.25390625
5,1734037506747.9062,12.6953125,-39.0625,-77.63671875,64.94140625
6,1734037506751.8125,4.39453125,-38.0859375,-89.35546875,25.390625
7,1734037506755.7188,-16.11328125,-45.8984375,-89.84375,-34.66796875
8,1734037506759.625,-19.53125,-40.0390625,-75.68359375,-17.578125
9,1734037506763.5312,-4.8828125,-31.73828125,-66.89453125,43.45703125
10,1734037506767.4375,-2.44140625,-39.55078125,-73.73046875,34.66796875
11,1734037506771.3438,-29.78515625,-44.43359375,-80.56640625,-45.8984375
0,1734037506775.25,-37.59765625,-36.62109375,-75.1953125,-58.10546875
1,1734037506779.1562,-17.08984375,-33.69140625,-72.75390625,14.16015625
2,1734037506783.0625,-11.71875,-41.50390625,-76.171875,34.1796875
3,1734037506786.9688,-34.66796875,-40.0390625,-74.21875,-33.203125
4,1734037506790.875,-56.15234375,-36.62109375,-66.40625,-84.47265625
5,1734037506794.7812,-22.4609375,-44.43359375,-56.640625,-12.20703125
6,1734037506798.6875,1.953125,-51.26953125,-51.7578125,44.43359375
7,1734037506802.5938,-24.4140625,-46.38671875,-43.9453125,-10.7421875
8,1734037506806.5,-62.5,-43.45703125,-41.015625,-91.796875
9,1734037506810.4062,-34.66796875,-48.33984375,-37.59765625,-38.57421875
10,1734037506814.3125,-8.30078125,-49.31640625,-30.2734375,33.203125
11,1734037506818.2188,-25.390625,-47.8515625,-32.2265625,-3.90625
0,1734037506822.125,-53.22265625,-49.8046875,-35.15625,-86.9140625
1,1734037506826.0312,-36.1328125,-50.29296875,-27.34375,-56.640625
2,1734037506829.9375,5.859375,-43.45703125,-23.92578125,24.90234375
3,1734037506833.8438,-15.13671875,-30.76171875,-23.4375,18.5546875
4,1734037506837.75,-49.31640625,-35.15625,-23.4375,-50.78125
5,1734037506841.6562,-33.203125,-45.8984375,-23.92578125,-58.59375
6,1734037506845.5625,-0.48828125,-48.33984375,-20.99609375,26.85546875
7,1734037506849.4688,-3.41796875,-41.015625,-17.08984375,35.64453125
8,1734037506853.375,-32.2265625,-32.2265625,-13.671875,-50.78125
9,1734037506857.2812,-48.828125,-40.52734375,-13.671875,-86.42578125
10,1734037506861.1875,-23.4375,-41.9921875,-14.16015625,-18.5546875
11,1734037506865.0938,-11.23046875,-27.34375,-7.8125,12.6953125
0,1734037506869,-23.4375,-29.296875,-3.41796875,-21.97265625
1,1734037506872.9062,-35.64453125,-43.45703125,-13.18359375,-92.7734375
2,1734037506876.8125,-17.08984375,-40.0390625,-18.5546875,-60.05859375
3,1734037506880.7188,3.41796875,-31.25,-16.11328125,5.859375
4,1734037506884.625,-0.48828125,-34.1796875,-14.6484375,-15.13671875
5,1734037506888.5312,-15.13671875,-48.828125,-26.3671875,-75.68359375
6,1734037506892.4375,-4.39453125,-48.33984375,-29.78515625,-61.5234375
7,1734037506896.3438,15.13671875,-29.78515625,-14.16015625,2.44140625
8,1734037506900.25,-2.44140625,-35.15625,-13.18359375,-8.30078125
9,1734037506904.1562,-30.2734375,-47.8515625,-15.13671875,-78.125
10,1734037506908.0625,-16.11328125,-36.62109375,-11.23046875,-98.14453125
11,1734037506911.9688,0.48828125,-20.5078125,-12.6953125,-36.1328125
0,1734037506915.875,-4.39453125,-34.66796875,-16.11328125,1.953125
1,1734037506919.7812,-6.8359375,-41.9921875,-6.8359375,-43.9453125
2,1734037506923.6875,-31.25,-36.1328125,2.9296875,-113.28125
3,1734037506927.5938,-20.99609375,-35.64453125,-0.48828125,-64.94140625
4,1734037506931.5,20.01953125,-33.203125,-1.46484375,0
5,1734037506935.4062,6.8359375,-38.0859375,-0.9765625,-36.1328125
6,1734037506939.3125,-30.76171875,-38.0859375,-3.90625,-104.98046875
7,1734037506943.2188,-19.53125,-38.0859375,-5.37109375,-70.80078125
8,1734037506947.125,9.27734375,-41.50390625,-2.9296875,-2.9296875
9,1734037506951.0312,23.92578125,-51.26953125,-5.37109375,-9.27734375
10,1734037506954.9375,-14.6484375,-45.41015625,-7.8125,-100.5859375
11,1734037506958.8438,-42.48046875,-26.85546875,-6.8359375,-115.234375
0,1734037506962.75,-11.71875,-27.83203125,-8.30078125,-30.2734375
1,1734037506966.6562,0.48828125,-27.83203125,-6.8359375,-13.671875
2,1734037506970.5625,-20.99609375,-30.2734375,-10.7421875,-88.37890625
3,1734037506974.4688,-28.80859375,-40.52734375,-13.18359375,-118.1640625
4,1734037506978.375,1.953125,-45.41015625,-12.6953125,-34.1796875
5,1734037506982.2812,13.18359375,-46.38671875,-16.11328125,-2.9296875
6,1734037506986.1875,-6.34765625,-44.43359375,-14.6484375,-57.6171875
7,1734037506990.0938,-28.3203125,-41.50390625,-11.23046875,-106.93359375
8,1734037506994,5.37109375,-42.96875,-5.859375,-41.9921875
9,1734037506997.9062,38.57421875,-36.62109375,3.41796875,19.04296875
10,1734037507001.8125,9.765625,-23.4375,3.90625,-29.78515625
11,1734037507005.7188,-18.5546875,-30.76171875,0.9765625,-90.8203125
0,1734037507009.625,-8.30078125,-35.15625,8.7890625,-53.7109375
1,1734037507013.5312,8.30078125,-30.2734375,15.13671875,13.671875
2,1734037507017.4375,3.41796875,-27.34375,14.6484375,2.9296875
3,1734037507021.3438,-17.578125,-25.87890625,15.13671875,-62.01171875
4,1734037507025.25,-20.99609375,-31.25,10.7421875,-72.75390625
5,1734037507029.1562,10.7421875,-26.85546875,14.6484375,1.46484375
6,1734037507033.0625,18.5546875,-21.97265625,16.11328125,19.04296875
7,1734037507036.9688,0,-26.85546875,14.6484375,-44.43359375
8,1734037507040.875,3.90625,-39.0625,15.13671875,-64.453125
9,1734037507044.7812,27.83203125,-29.78515625,15.625,-5.37109375
10,1734037507048.6875,27.34375,-21.484375,12.20703125,11.71875
11,1734037507052.5938,15.13671875,-31.73828125,8.30078125,-30.2734375
0,1734037507056.5,-7.8125,-28.80859375,11.23046875,-80.078125
1,1734037507060.4062,-2.9296875,-23.92578125,12.6953125,-38.0859375
2,1734037507064.3125,10.7421875,-26.3671875,13.18359375,16.6015625
3,1734037507068.2188,-3.90625,-35.64453125,12.6953125,-11.71875
4,1734037507072.125,-30.2734375,-40.0390625,14.16015625,-84.9609375
5,1734037507076.0312,-22.4609375,-37.109375,16.11328125,-75.1953125
6,1734037507079.9375,6.8359375,-35.64453125,17.08984375,-0.48828125
7,1734037507083.8438,15.625,-40.0390625,16.11328125,7.32421875
8,1734037507087.75,-15.625,-41.015625,12.20703125,-68.359375
9,1734037507091.6562,-47.8515625,-42.96875,10.25390625,-100.09765625
10,1734037507095.5625,-21.97265625,-48.33984375,9.27734375,-19.53125
11,1734037507099.4688,-11.71875,-40.52734375,3.90625,9.765625
0,1734037507103.375,-37.109375,-38.0859375,4.39453125,-41.50390625
1,1734037507107.2812,-53.22265625,-40.52734375,2.9296875,-82.03125
2,1734037507111.1875,-19.04296875,-39.0625,0,-8.7890625
3,1734037507115.0938,5.37109375,-38.57421875,0.9765625,43.9453125
4,1734037507119,1.953125,-29.78515625,3.41796875,-3.90625
5,1734037507122.9062,-30.2734375,-30.2734375,-7.32421875,-69.3359375
6,1734037507126.8125,-26.85546875,-38.0859375,-21.97265625,-43.9453125
7,1734037507130.7188,9.765625,-35.64453125,-26.85546875,32.2265625
8,1734037507134.625,-12.20703125,-25.87890625,-38.57421875,-9.27734375
9,1734037507138.5312,-47.36328125,-23.4375,-43.45703125,-98.14453125
10,1734037507142.4375,-23.92578125,-33.203125,-41.015625,-66.40625
11,1734037507146.3438,5.859375,-34.66796875,-40.0390625,16.11328125
0,1734037507150.25,6.34765625,-29.296875,-36.62109375,6.34765625
1,1734037507154.1562,-1.953125,-30.76171875,-39.0625,-64.453125
2,1734037507158.0625,-18.5546875,-37.59765625,-45.8984375,-76.171875
3,1734037507161.9688,-1.953125,-35.64453125,-48.33984375,0.48828125
4,1734037507165.875,16.6015625,-34.66796875,-53.7109375,25.87890625
5,1734037507169.7812,-0.9765625,-41.50390625,-56.640625,-30.2734375
6,1734037507173.6875,-21.484375,-49.31640625,-54.19921875,-52.734375
7,1734037507177.5938,0.9765625,-45.8984375,-54.6875,0.9765625
8,1734037507181.5,16.11328125,-30.76171875,-52.734375,14.16015625
9,1734037507185.4062,0.9765625,-34.1796875,-53.7109375,-19.53125
10,1734037507189.3125,-28.80859375,-43.9453125,-58.59375,-73.2421875
11,1734037507193.2188,-19.53125,-42.96875,-62.98828125,-43.9453125
0,1734037507197.125,13.671875,-37.59765625,-65.91796875,18.06640625
1,1734037507201.0312,12.6953125,-38.57421875,-65.91796875,2.44140625
2,1734037507204.9375,-15.625,-41.015625,-67.87109375,-73.2421875
3,1734037507208.8438,-20.01953125,-38.0859375,-67.87109375,-71.2890625
4,1734037507212.75,19.53125,-29.78515625,-67.87109375,12.6953125
5,1734037507216.6562,33.69140625,-31.73828125,-77.63671875,25.87890625
6,1734037507220.5625,18.5546875,-40.0390625,-84.47265625,-36.1328125
7,1734037507224.4688,5.37109375,-32.71484375,-80.56640625,-73.73046875
8,1734037507228.375,25.390625,-25.390625,-75.68359375,-1.46484375
9,1734037507232.2812,35.15625,-28.3203125,-79.1015625,48.828125
10,1734037507236.1875,13.671875,-38.57421875,-86.42578125,-8.30078125
11,1734037507240.0938,-6.8359375,-29.296875,-83.984375,-83.0078125
0,1734037507244,8.7890625,-22.94921875,-75.68359375,-27.83203125
1,1734037507247.9062,20.5078125,-31.25,-73.73046875,41.015625
2,1734037507251.8125,-12.6953125,-33.203125,-76.66015625,0.48828125
3,1734037507255.7188,-55.17578125,-35.64453125,-83.49609375,-76.171875
4,1734037507259.625,-44.921875,-38.0859375,-83.49609375,-49.31640625
5,1734037507263.5312,4.39453125,-40.52734375,-75.68359375,29.78515625
6,1734037507267.4375,-9.765625,-40.0390625,-68.84765625,26.3671875
7,1734037507271.3438,-60.05859375,-32.71484375,-68.84765625,-50.78125
8,1734037507275.25,-59.5703125,-31.73828125,-78.61328125,-75.1953125
9,1734037507279.1562,-22.94921875,-38.57421875,-86.9140625,19.04296875
10,1734037507283.0625,-20.01953125,-35.64453125,-85.44921875,40.52734375
11,1734037507286.9688,-49.31640625,-25.390625,-83.49609375,-47.36328125
0,1734037507290.875,-64.453125,-27.83203125,-86.9140625,-77.1484375
1,1734037507294.7812,-27.83203125,-23.4375,-84.47265625,-0.9765625
2,1734037507298.6875,-0.48828125,-17.08984375,-74.21875,41.015625
3,1734037507302.5938,-23.92578125,-22.94921875,-72.265625,-2.9296875
4,1734037507306.5,-44.43359375,-31.25,-74.21875,-49.8046875
5,1734037507310.4062,-23.92578125,-32.2265625,-68.84765625,-2.44140625
6,1734037507314.3125,-11.23046875,-21.484375,-65.4296875,48.828125
7,1734037507318.2188,-31.25,-17.08984375,-59.5703125,20.99609375
8,1734037507322.125,-59.08203125,-30.2734375,-60.05859375,-51.26953125
9,1734037507326.0312,-41.50390625,-32.2265625,-61.03515625,-30.76171875
10,1734037507329.9375,-18.5546875,-18.06640625,-51.7578125,32.71484375
11,1734037507333.8438,-30.2734375,-21.97265625,-54.19921875,19.53125
0,1734037507337.75,-41.9921875,-39.0625,-61.03515625,-36.62109375
1,1734037507341.6562,-43.9453125,-37.109375,-58.59375,-57.6171875
2,1734037507345.5625,-37.109375,-22.94921875,-54.6875,-9.27734375
3,1734037507349.4688,-24.90234375,-21.97265625,-52.734375,18.5546875
4,1734037507353.375,-31.25,-31.73828125,-54.6875,-20.01953125
5,1734037507357.2812,-50.78125,-43.45703125,-54.6875,-63.4765625
6,1734037507361.1875,-24.90234375,-34.1796875,-46.875,-7.8125
7,1734037507365.0938,-7.32421875,-17.08984375,-40.52734375,39.55078125
8,1734037507369,-13.18359375,-33.203125,-44.921875,16.11328125
9,1734037507372.9062,-29.78515625,-42.48046875,-45.8984375,-40.0390625
10,1734037507376.8125,-33.203125,-30.76171875,-41.015625,-21.484375
11,1734037507380.7188,-4.39453125,-36.1328125,-42.48046875,44.921875
0,1734037507384.625,0,-37.109375,-47.36328125,29.296875
1,1734037507388.5312,-32.2265625,-37.59765625,-47.8515625,-49.8046875
2,1734037507392.4375,-22.4609375,-44.43359375,-41.50390625,-46.38671875
3,1734037507396.3438,20.01953125,-42.96875,-39.0625,42.96875
4,1734037507400.25,18.06640625,-35.15625,-41.015625,40.52734375
5,1734037507404.1562,-21.484375,-40.0390625,-41.9921875,-39.55078125
6,1734037507408.0625,-30.2734375,-51.7578125,-39.0625,-62.5
7,1734037507411.9688,-0.48828125,-49.8046875,-36.62109375,7.32421875
8,1734037507415.875,31.25,-48.828125,-37.109375,56.640625
9,1734037507419.7812,3.90625,-35.15625,-38.0859375,-7.32421875
10,1734037507423.6875,-41.9921875,-28.80859375,-38.57421875,-78.125
11,1734037507427.5938,-6.8359375,-34.66796875,-32.71484375,-13.18359375
0,1734037507431.5,17.578125,-25.390625,-30.2734375,37.59765625
1,1734037507435.4062,-1.953125,-22.94921875,-34.1796875,-5.859375
2,1734037507439.3125,-24.90234375,-32.2265625,-35.15625,-66.40625
3,1734037507443.2188,-8.30078125,-37.59765625,-33.69140625,-22.4609375
4,1734037507447.125,14.6484375,-34.1796875,-29.78515625,39.55078125
5,1734037507451.0312,11.71875,-36.1328125,-29.78515625,21.97265625
6,1734037507454.9375,-15.13671875,-38.0859375,-33.69140625,-39.0625
7,1734037507458.8438,-16.11328125,-41.9921875,-35.15625,-34.66796875
8,1734037507462.75,6.34765625,-33.69140625,-32.71484375,30.76171875
9,1734037507466.6562,-10.7421875,-22.94921875,-28.80859375,24.4140625
10,1734037507470.5625,-29.296875,-34.1796875,-30.2734375,-38.0859375
11,1734037507474.4688,-29.296875,-36.1328125,-36.1328125,-62.5
0,1734037507478.375,-4.39453125,-22.94921875,-31.25,-0.48828125
1,1734037507482.2812,7.8125,-24.90234375,-28.3203125,27.34375
2,1734037507486.1875,-8.30078125,-37.109375,-35.15625,-18.5546875
3,1734037507490.0938,-25.87890625,-38.0859375,-41.9921875,-67.3828125
4,1734037507494,-5.859375,-28.3203125,-43.45703125,-22.4609375
5,1734037507497.9062,2.44140625,-19.53125,-43.45703125,36.62109375
6,1734037507501.8125,-12.6953125,-27.34375,-41.9921875,17.578125
7,1734037507505.7188,-24.4140625,-44.43359375,-39.55078125,-37.109375
8,1734037507509.625,-20.99609375,-31.73828125,-38.0859375,-38.57421875
9,1734037507513.5312,0.9765625,-11.23046875,-34.1796875,19.53125
10,1734037507517.4375,5.37109375,-19.04296875,-32.2265625,26.3671875
11,1734037507521.3438,-11.71875,-33.203125,-32.71484375,-40.0390625
0,1734037507525.25,-26.85546875,-31.25,-27.34375,-78.61328125
1,1734037507529.1562,-17.578125,-27.83203125,-26.3671875,-6.8359375
2,1734037507533.0625,-12.20703125,-35.15625,-31.73828125,27.83203125
3,1734037507536.9688,-34.1796875,-39.0625,-43.45703125,-43.45703125
4,1734037507540.875,-39.55078125,-36.1328125,-41.015625,-80.078125
5,1734037507544.7812,-7.32421875,-33.203125,-31.25,-3.41796875
6,1734037507548.6875,17.578125,-35.64453125,-35.15625,51.26953125
7,1734037507552.5938,-3.41796875,-33.203125,-34.1796875,5.859375
8,1734037507556.5,-46.38671875,-19.53125,-31.25,-68.359375
9,1734037507560.4062,-29.296875,-19.04296875,-34.66796875,-24.90234375
10,1734037507564.3125,-3.90625,-20.5078125,-32.2265625,32.71484375
11,1734037507568.2188,-7.32421875,-21.484375,-26.85546875,15.13671875
0,1734037507572.125,-31.73828125,-24.4140625,-27.34375,-52.24609375
1,1734037507576.0312,-24.90234375,-25.87890625,-24.90234375,-40.52734375
2,1734037507579.9375,11.71875,-28.3203125,-20.99609375,30.76171875
3,1734037507583.8438,4.39453125,-29.78515625,-27.34375,17.08984375
4,1734037507587.75,-32.2265625,-36.62109375,-27.83203125,-55.6640625
5,1734037507591.6562,-28.3203125,-45.8984375,-19.04296875,-62.5
6,1734037507595.5625,6.8359375,-43.9453125,-22.94921875,3.90625
7,1734037507599.4688,-8.30078125,-33.69140625,-28.80859375,9.27734375
8,1734037507603.375,-41.015625,-27.83203125,-24.4140625,-51.26953125
9,1734037507607.2812,-47.36328125,-37.109375,-26.3671875,-89.84375
10,1734037507611.1875,-5.859375,-29.296875,-25.87890625,-22.4609375
11,1734037507615.0938,21.484375,-12.20703125,-17.578125,16.6015625
0,1734037507619,-6.8359375,-28.3203125,-14.6484375,-17.578125
1,1734037507622.9062,-43.45703125,-38.57421875,-15.13671875,-67.3828125
2,1734037507626.8125,-37.59765625,-29.78515625,-14.6484375,-48.33984375
3,1734037507630.7188,-4.8828125,-22.4609375,-5.37109375,12.6953125
4,1734037507634.625,-10.25390625,-21.97265625,0,14.6484375
5,1734037507638.5312,-43.9453125,-27.83203125,-8.30078125,-58.59375
6,1734037507642.4375,-40.52734375,-27.83203125,-8.30078125,-60.05859375
7,1734037507646.3438,-14.16015625,-22.4609375,3.90625,20.5078125
8,1734037507650.25,-9.27734375,-27.34375,10.25390625,30.2734375
9,1734037507654.1562,-32.71484375,-35.64453125,8.30078125,-23.4375
10,1734037507658.0625,-55.17578125,-33.203125,5.37109375,-68.359375
11,1734037507661.9688,-26.3671875,-24.90234375,8.30078125,-22.4609375
0,1734037507665.875,3.90625,-24.90234375,14.16015625,17.08984375
1,1734037507669.7812,-21.484375,-30.76171875,11.23046875,-40.0390625
2,1734037507673.6875,-55.17578125,-36.1328125,5.859375,-89.84375
3,1734037507677.5938,-42.96875,-41.015625,11.23046875,-34.66796875
4,1734037507681.5,-16.6015625,-43.45703125,18.06640625,9.765625
5,1734037507685.4062,-6.34765625,-48.33984375,12.6953125,5.37109375
6,1734037507689.3125,-34.1796875,-41.015625,8.7890625,-63.4765625
7,1734037507693.2188,-45.41015625,-29.78515625,6.34765625,-69.3359375
8,1734037507697.125,-18.5546875,-33.69140625,4.39453125,3.90625
9,1734037507701.0312,-14.6484375,-37.109375,6.34765625,6.34765625
10,1734037507704.9375,-57.6171875,-35.64453125,4.8828125,-75.1953125
11,1734037507708.8438,-62.01171875,-36.62109375,4.39453125,-87.890625
0,1734037507712.75,-26.85546875,-41.015625,10.25390625,0
1,1734037507716.6562,-23.4375,-43.9453125,7.32421875,18.5546875
2,1734037507720.5625,-46.38671875,-49.31640625,1.953125,-52.24609375
3,1734037507724.4688,-56.15234375,-53.22265625,2.44140625,-89.84375
4,1734037507728.375,-24.90234375,-51.26953125,-0.48828125,-14.16015625
5,1734037507732.2812,-3.90625,-54.19921875,-5.859375,31.25
6,1734037507736.1875,-15.13671875,-57.6171875,-9.27734375,-11.23046875
7,1734037507740.0938,-34.1796875,-54.6875,-11.23046875,-69.3359375
8,1734037507744,-5.859375,-51.26953125,-8.30078125,-8.7890625
9,1734037507747.9062,9.765625,-41.9921875,-11.23046875,49.8046875
10,1734037507751.8125,-13.18359375,-33.69140625,-17.08984375,6.8359375
11,1734037507755.7188,-31.73828125,-42.96875,-21.97265625,-50.29296875
0,1734037507759.625,-35.64453125,-47.8515625,-21.484375,-40.52734375
1,1734037507763.5312,-18.06640625,-45.8984375,-22.4609375,22.94921875
2,1734037507767.4375,-13.671875,-37.59765625,-20.99609375,19.53125
3,1734037507771.3438,-20.99609375,-35.64453125,-27.34375,-46.875
4,1734037507775.25,-22.94921875,-40.0390625,-33.203125,-60.546875
5,1734037507779.1562,-21.484375,-38.57421875,-26.85546875,4.8828125
6,1734037507783.0625,-12.20703125,-35.15625,-20.5078125,35.15625
7,1734037507786.9688,-19.53125,-34.66796875,-19.04296875,-13.671875
8,1734037507790.875,-20.5078125,-47.36328125,-26.85546875,-45.41015625
9,1734037507794.7812,-2.44140625,-39.55078125,-24.4140625,1.46484375
10,1734037507798.6875,-2.44140625,-16.6015625,-14.16015625,23.4375
11,1734037507802.5938,-7.32421875,-25.390625,-19.53125,-5.37109375
0,1734037507806.5,-23.4375,-29.78515625,-23.92578125,-65.4296875
1,1734037507810.4062,-21.484375,-21.97265625,-21.484375,-46.875
2,1734037507814.3125,-7.32421875,-32.2265625,-25.390625,16.6015625
3,1734037507818.2188,-12.20703125,-41.9921875,-30.76171875,10.7421875
4,1734037507822.125,-36.62109375,-35.64453125,-31.25,-54.6875
5,1734037507826.0312,-28.3203125,-25.87890625,-35.15625,-51.26953125
6,1734037507829.9375,1.953125,-29.78515625,-36.62109375,20.01953125
7,1734037507833.8438,6.34765625,-44.43359375,-41.9921875,46.875
8,1734037507837.75,-14.6484375,-41.015625,-43.9453125,-18.06640625
9,1734037507841.6562,-37.59765625,-36.62109375,-44.921875,-62.01171875
10,1734037507845.5625,-20.01953125,-41.9921875,-54.6875,18.5546875
11,1734037507849.4688,-1.46484375,-41.015625,-56.15234375,46.38671875
0,1734037507853.375,-20.5078125,-36.62109375,-59.5703125,-19.04296875
1,1734037507857.2812,-49.8046875,-37.109375,-68.84765625,-70.80078125
2,1734037507861.1875,-30.2734375,-46.38671875,-71.77734375,-10.25390625
3,1734037507865.0938,-15.13671875,-44.43359375,-70.80078125,34.1796875
4,1734037507869,-22.4609375,-41.9921875,-73.73046875,-12.6953125
5,1734037507872.9062,-38.57421875,-43.9453125,-83.49609375,-68.84765625
6,1734037507876.8125,-21.97265625,-38.57421875,-84.9609375,-27.34375
7,1734037507880.7188,19.53125,-42.96875,-81.54296875,56.640625
8,1734037507884.625,-8.30078125,-41.015625,-78.61328125,25.390625
9,1734037507888.5312,-54.19921875,-39.0625,-83.984375,-68.84765625
10,1734037507892.4375,-33.69140625,-43.45703125,-94.23828125,-50.29296875
11,1734037507896.3438,-7.8125,-33.69140625,-97.16796875,25.87890625
0,1734037507900.25,-2.9296875,-33.203125,-104.00390625,17.578125
1,1734037507904.1562,-28.3203125,-39.0625,-106.93359375,-45.8984375
2,1734037507908.0625,-41.50390625,-53.22265625,-106.4453125,-62.98828125
3,1734037507911.9688,-10.7421875,-51.7578125,-107.91015625,-1.953125
4,1734037507915.875,-2.9296875,-34.66796875,-109.86328125,24.4140625
5,1734037507919.7812,-14.16015625,-40.0390625,-111.328125,-16.6015625
6,1734037507923.6875,-37.109375,-62.5,-112.79296875,-56.640625
7,1734037507927.5938,-27.34375,-54.19921875,-108.3984375,-17.08984375
8,1734037507931.5,-2.44140625,-29.78515625,-98.14453125,15.13671875
9,1734037507935.4062,-8.7890625,-38.57421875,-97.16796875,-3.41796875
10,1734037507939.3125,-39.0625,-44.921875,-100.5859375,-64.453125
11,1734037507943.2188,-32.2265625,-39.0625,-99.12109375,-47.36328125
0,1734037507947.125,-8.7890625,-35.64453125,-95.21484375,24.90234375
1,1734037507951.0312,-10.7421875,-39.55078125,-90.8203125,7.8125
2,1734037507954.9375,-32.2265625,-47.8515625,-88.37890625,-59.08203125
3,1734037507958.8438,-35.15625,-40.52734375,-84.47265625,-58.59375
4,1734037507962.75,-7.8125,-33.69140625,-83.0078125,6.34765625
5,1734037507966.6562,3.41796875,-32.2265625,-78.61328125,31.25
6,1734037507970.5625,-14.6484375,-41.015625,-82.03125,-13.671875
7,1734037507974.4688,-38.0859375,-41.015625,-85.9375,-67.3828125
8,1734037507978.375,-19.04296875,-23.92578125,-79.58984375,-32.2265625
9,1734037507982.2812,2.44140625,-24.90234375,-76.171875,18.5546875
10,1734037507986.1875,-20.99609375,-36.62109375,-71.77734375,-20.01953125
11,1734037507990.0938,-52.734375,-28.3203125,-65.91796875,-99.609375
0,1734037507994,-24.90234375,-24.4140625,-61.5234375,-56.640625
1,1734037507997.9062,4.39453125,-33.203125,-60.05859375,4.39453125
2,1734037508001.8125,-11.23046875,-36.62109375,-62.98828125,-16.11328125
3,1734037508005.7188,-36.62109375,-37.59765625,-61.5234375,-82.03125
4,1734037508009.625,-36.1328125,-35.15625,-61.03515625,-70.80078125
5,1734037508013.5312,-5.37109375,-33.69140625,-68.359375,9.765625
6,1734037508017.4375,5.37109375,-35.64453125,-69.82421875,13.671875
7,1734037508021.3438,-28.80859375,-43.9453125,-68.359375,-48.33984375
8,1734037508025.25,-43.9453125,-41.015625,-67.87109375,-71.2890625
9,1734037508029.1562,-4.39453125,-42.48046875,-66.40625,8.7890625
10,1734037508033.0625,5.859375,-41.015625,-65.4296875,38.0859375
11,1734037508036.9688,-23.4375,-34.66796875,-67.3828125,-43.45703125
0,1734037508040.875,-43.45703125,-48.33984375,-69.82421875,-83.984375
1,1734037508044.7812,-31.25,-47.36328125,-61.03515625,-16.6015625
2,1734037508048.6875,-10.7421875,-37.109375,-59.08203125,26.85546875
3,1734037508052.5938,-13.671875,-37.109375,-61.03515625,-7.32421875
4,1734037508056.5,-37.59765625,-46.875,-59.08203125,-63.96484375
5,1734037508060.4062,-22.4609375,-48.33984375,-52.734375,-24.90234375
6,1734037508064.3125,5.37109375,-42.96875,-48.828125,28.80859375
7,1734037508068.2188,-2.9296875,-46.875,-53.7109375,-0.48828125
8,1734037508072.125,-28.3203125,-50.78125,-57.12890625,-59.08203125
9,1734037508076.0312,-24.4140625,-54.6875,-58.59375,-34.66796875
10,1734037508079.9375,3.41796875,-38.57421875,-52.24609375,18.5546875
11,1734037508083.8438,2.9296875,-25.390625,-52.734375,-1.953125
0,1734037508087.75,-28.3203125,-41.9921875,-59.5703125,-52.24609375
1,1734037508091.6562,-44.921875,-45.8984375,-55.6640625,-71.2890625
2,1734037508095.5625,-14.16015625,-39.55078125,-52.734375,-6.34765625
3,1734037508099.4688,-2.44140625,-44.43359375,-55.6640625,25.390625
4,1734037508103.375,-16.11328125,-44.43359375,-58.10546875,-15.13671875
5,1734037508107.2812,-35.64453125,-41.50390625,-55.17578125,-65.91796875
6,1734037508111.1875,-25.87890625,-44.43359375,-56.15234375,-16.11328125
7,1734037508115.0938,-6.8359375,-37.59765625,-56.15234375,31.73828125
8,1734037508119,-5.859375,-40.0390625,-51.26953125,3.41796875
9,1734037508122.9062,-40.52734375,-46.875,-49.8046875,-59.5703125
10,1734037508126.8125,-40.0390625,-35.15625,-47.36328125,-51.7578125
11,1734037508130.7188,5.859375,-25.87890625,-47.8515625,11.23046875
0,1734037508134.625,1.46484375,-28.80859375,-52.24609375,5.859375
1,1734037508138.5312,-30.2734375,-26.85546875,-51.26953125,-60.546875
2,1734037508142.4375,-40.52734375,-19.53125,-48.33984375,-74.70703125
3,1734037508146.3438,-13.671875,-20.01953125,-50.29296875,1.953125
4,1734037508150.25,-3.90625,-23.92578125,-52.24609375,19.53125
5,1734037508154.1562,-30.2734375,-23.4375,-57.6171875,-46.875
6,1734037508158.0625,-40.52734375,-20.99609375,-61.5234375,-81.0546875
7,1734037508161.9688,-17.08984375,-18.5546875,-62.01171875,-20.99609375
8,1734037508165.875,2.44140625,-26.3671875,-64.94140625,32.2265625
9,1734037508169.7812,-23.4375,-22.94921875,-61.5234375,-12.6953125
10,1734037508173.6875,-53.22265625,-14.6484375,-57.12890625,-87.40234375
11,1734037508177.5938,-23.92578125,-25.390625,-58.10546875,-34.1796875
0,1734037508181.5,2.44140625,-32.2265625,-55.6640625,39.0625
1,1734037508185.4062,-6.34765625,-33.69140625,-52.734375,2.9296875
2,1734037508189.3125,-38.57421875,-34.66796875,-55.17578125,-74.70703125
3,1734037508193.2188,-32.71484375,-42.96875,-54.19921875,-43.45703125
4,1734037508197.125,0,-39.0625,-42.48046875,31.25
5,1734037508201.0312,-3.41796875,-38.0859375,-40.52734375,15.625
6,1734037508204.9375,-39.0625,-52.24609375,-50.29296875,-58.59375
7,1734037508208.8438,-31.73828125,-58.59375,-49.31640625,-39.55078125
8,1734037508212.75,-5.859375,-49.8046875,-38.0859375,35.15625
9,1734037508216.6562,-22.4609375,-43.9453125,-30.76171875,24.4140625
10,1734037508220.5625,-29.78515625,-52.24609375,-39.55078125,-29.78515625
11,1734037508224.4688,-36.62109375,-48.33984375,-42.48046875,-70.3125
0,1734037508228.375,-14.6484375,-38.0859375,-34.66796875,-8.30078125
1,1734037508232.2812,0.48828125,-28.3203125,-31.25,35.15625
2,1734037508236.1875,-13.671875,-32.71484375,-30.76171875,-6.34765625
3,1734037508240.0938,-38.0859375,-44.43359375,-35.15625,-64.94140625
4,1734037508244,-40.52734375,-41.015625,-33.203125,-32.71484375
5,1734037508247.9062,-10.25390625,-39.55078125,-32.2265625,35.15625
6,1734037508251.8125,-9.765625,-42.96875,-37.109375,5.859375
7,1734037508255.7188,-25.390625,-54.6875,-39.0625,-51.7578125
8,1734037508259.625,-25.87890625,-40.52734375,-37.109375,-45.8984375
9,1734037508263.5312,-12.20703125,-23.92578125,-42.48046875,-1.46484375
10,1734037508267.4375,-0.48828125,-34.1796875,-48.33984375,12.6953125
11,1734037508271.3438,-33.69140625,-34.1796875,-47.36328125,-50.78125
0,1734037508275.25,-55.17578125,-24.90234375,-47.8515625,-82.51953125
1,1734037508279.1562,-21.97265625,-25.87890625,-45.41015625,-10.25390625
2,1734037508283.0625,-5.37109375,-26.85546875,-40.52734375,20.99609375
3,1734037508286.9688,-22.94921875,-25.87890625,-42.48046875,-32.71484375
4,1734037508290.875,-38.0859375,-35.15625,-47.8515625,-82.03125
5,1734037508294.7812,-17.578125,-37.59765625,-44.43359375,-26.3671875
6,1734037508298.6875,8.7890625,-36.62109375,-39.55078125,42.96875
7,1734037508302.5938,-1.953125,-38.0859375,-40.0390625,11.23046875
8,1734037508306.5,-46.875,-36.1328125,-41.015625,-70.3125
9,1734037508310.4062,-28.3203125,-33.203125,-39.0625,-36.62109375
10,1734037508314.3125,24.4140625,-32.71484375,-36.62109375,51.7578125
11,1734037508318.2188,8.7890625,-31.25,-34.1796875,23.4375
0,1734037508322.125,-35.64453125,-28.3203125,-35.64453125,-72.265625
1,1734037508326.0312,-33.203125,-32.71484375,-38.57421875,-56.640625
2,1734037508329.9375,-1.46484375,-26.3671875,-41.015625,19.53125
3,1734037508333.8438,7.32421875,-15.625,-47.36328125,21.97265625
4,1734037508337.75,-11.71875,-16.6015625,-49.31640625,-38.57421875
5,1734037508341.6562,-21.484375,-29.78515625,-48.33984375,-56.15234375
6,1734037508345.5625,3.41796875,-29.78515625,-45.41015625,19.53125
7,1734037508349.4688,8.7890625,-19.04296875,-41.9921875,27.83203125
8,1734037508353.375,-11.71875,-22.94921875,-50.29296875,-43.9453125
9,1734037508357.2812,-33.69140625,-35.64453125,-54.19921875,-80.56640625
10,1734037508361.1875,-16.11328125,-38.0859375,-49.31640625,-24.4140625
11,1734037508365.0938,4.8828125,-22.4609375,-49.31640625,11.23046875
0,1734037508369,-13.18359375,-20.5078125,-54.19921875,-23.92578125
1,1734037508372.9062,-30.76171875,-29.296875,-55.6640625,-76.171875
2,1734037508376.8125,-29.78515625,-26.85546875,-55.17578125,-51.26953125
3,1734037508380.7188,-7.8125,-13.18359375,-53.22265625,15.625
4,1734037508384.625,4.8828125,-13.18359375,-55.6640625,15.13671875
5,1734037508388.5312,-11.71875,-22.94921875,-65.4296875,-49.31640625
6,1734037508392.4375,-20.01953125,-20.01953125,-63.4765625,-56.640625
7,1734037508396.3438,-6.8359375,-11.23046875,-57.6171875,9.27734375
8,1734037508400.25,1.46484375,-8.7890625,-58.10546875,28.80859375
9,1734037508404.1562,-13.671875,-25.87890625,-65.91796875,-17.578125
10,1734037508408.0625,-31.73828125,-33.203125,-63.4765625,-57.6171875
11,1734037508411.9688,-16.6015625,-17.08984375,-54.6875,-9.27734375
0,1734037508415.875,6.8359375,-16.11328125,-56.15234375,28.80859375
1,1734037508419.7812,0,-27.34375,-57.12890625,-8.7890625
2,1734037508423.6875,-36.1328125,-32.71484375,-62.01171875,-73.2421875
3,1734037508427.5938,-32.71484375,-29.296875,-62.5,-34.1796875
4,1734037508431.5,1.953125,-24.4140625,-62.5,24.4140625
5,1734037508435.4062,2.9296875,-25.390625,-61.5234375,11.23046875
6,1734037508439.3125,-36.62109375,-31.73828125,-54.19921875,-62.5
7,1734037508443.2188,-34.1796875,-31.25,-49.31640625,-50.78125
8,1734037508447.125,-2.9296875,-30.76171875,-48.828125,33.203125
9,1734037508451.0312,-1.46484375,-43.9453125,-50.29296875,32.71484375
10,1734037508454.9375,-43.45703125,-39.0625,-51.7578125,-51.26953125
11,1734037508458.8438,-60.546875,-32.71484375,-55.17578125,-83.0078125
0,1734037508462.75,-18.5546875,-40.0390625,-51.7578125,-10.7421875
1,1734037508466.6562,-1.46484375,-41.50390625,-49.31640625,19.53125
2,1734037508470.5625,-13.671875,-37.59765625,-46.875,-34.66796875
3,1734037508474.4688,-25.87890625,-37.59765625,-42.96875,-82.51953125
4,1734037508478.375,-3.90625,-35.15625,-38.57421875,-7.32421875
5,1734037508482.2812,13.18359375,-31.25,-39.0625,25.87890625
6,1734037508486.1875,-7.32421875,-30.76171875,-40.52734375,-28.3203125
7,1734037508490.0938,-31.25,-32.71484375,-39.0625,-73.73046875
8,1734037508494,-21.484375,-42.48046875,-42.96875,-19.53125
9,1734037508497.9062,-20.5078125,-41.9921875,-41.9921875,36.62109375
10,1734037508501.8125,-41.015625,-28.80859375,-36.62109375,-3.41796875
11,1734037508505.7188,-58.59375,-36.1328125,-37.59765625,-62.5
0,1734037508509.625,-46.875,-46.38671875,-37.59765625,-57.12890625
1,1734037508513.5312,-21.97265625,-38.57421875,-35.64453125,8.7890625
2,1734037508517.4375,-22.94921875,-33.203125,-32.2265625,15.625
3,1734037508521.3438,-38.57421875,-43.45703125,-32.2265625,-46.38671875
4,1734037508525.25,-50.29296875,-51.26953125,-38.57421875,-71.77734375
5,1734037508529.1562,-24.90234375,-45.41015625,-31.73828125,-4.39453125
6,1734037508533.0625,-18.5546875,-46.875,-28.80859375,26.3671875
7,1734037508536.9688,-49.31640625,-48.33984375,-45.8984375,-37.59765625
8,1734037508540.875,-45.41015625,-54.6875,-54.6875,-77.1484375
9,1734037508544.7812,-22.94921875,-46.875,-49.31640625,-27.34375
10,1734037508548.6875,-22.94921875,-36.1328125,-41.015625,0
11,1734037508552.5938,-29.78515625,-44.921875,-41.015625,-23.92578125
0,1734037508556.5,-54.6875,-47.8515625,-49.31640625,-75.68359375
1,1734037508560.4062,-49.31640625,-47.36328125,-50.29296875,-50.78125
2,1734037508564.3125,-18.06640625,-45.41015625,-45.8984375,11.23046875
3,1734037508568.2188,-18.5546875,-46.38671875,-42.96875,1.46484375
4,1734037508572.125,-49.31640625,-49.8046875,-36.62109375,-64.94140625
5,1734037508576.0312,-46.875,-43.9453125,-32.2265625,-62.5
6,1734037508579.9375,-25.87890625,-37.109375,-35.64453125,-0.9765625
7,1734037508583.8438,-16.6015625,-44.43359375,-40.52734375,18.06640625
8,1734037508587.75,-35.64453125,-37.59765625,-43.9453125,-36.1328125
9,1734037508591.6562,-66.89453125,-28.3203125,-40.0390625,-89.84375
10,1734037508595.5625,-38.0859375,-31.73828125,-37.59765625,-12.6953125
11,1734037508599.4688,-16.6015625,-32.71484375,-37.59765625,34.66796875
0,1734037508603.375,-33.69140625,-31.25,-40.52734375,-14.6484375
1,1734037508607.2812,-56.640625,-29.296875,-41.9921875,-75.68359375
2,1734037508611.1875,-34.66796875,-32.2265625,-39.0625,-30.2734375
3,1734037508615.0938,-6.34765625,-32.71484375,-33.203125,33.69140625
4,1734037508619,-17.578125,-27.34375,-34.66796875,6.34765625
5,1734037508622.9062,-49.8046875,-36.1328125,-40.52734375,-61.03515625
6,1734037508626.8125,-38.57421875,-41.50390625,-39.55078125,-39.55078125
7,1734037508630.7188,9.27734375,-48.33984375,-41.9921875,53.7109375
8,1734037508634.625,0,-36.1328125,-45.8984375,34.1796875
9,1734037508638.5312,-50.78125,-20.99609375,-51.26953125,-62.5
10,1734037508642.4375,-50.29296875,-36.62109375,-56.15234375,-60.05859375
11,1734037508646.3438,-1.953125,-37.109375,-54.6875,17.08984375
0,1734037508650.25,-2.44140625,-25.87890625,-54.6875,14.6484375
1,1734037508654.1562,-28.3203125,-24.90234375,-57.6171875,-41.015625
2,1734037508658.0625,-33.69140625,-33.203125,-64.94140625,-71.77734375
3,1734037508661.9688,-26.3671875,-38.0859375,-65.91796875,-25.390625
4,1734037508665.875,-13.671875,-35.64453125,-67.87109375,14.16015625
5,1734037508669.7812,-14.6484375,-39.0625,-70.3125,-16.6015625
6,1734037508673.6875,-36.1328125,-52.734375,-71.2890625,-70.80078125
7,1734037508677.5938,-27.34375,-48.828125,-70.3125,-31.73828125
8,1734037508681.5,-3.90625,-32.71484375,-64.94140625,14.6484375
9,1734037508685.4062,-8.30078125,-43.9453125,-68.84765625,-14.6484375
10,1734037508689.3125,-47.8515625,-53.7109375,-73.73046875,-81.0546875
11,1734037508693.2188,-57.6171875,-46.875,-72.75390625,-74.21875
0,1734037508697.125,-28.3203125,-45.41015625,-64.94140625,-3.90625
1,1734037508701.0312,-22.4609375,-49.31640625,-64.453125,4.39453125
2,1734037508704.9375,-46.875,-40.52734375,-67.3828125,-59.08203125
3,1734037508708.8438,-67.87109375,-32.2265625,-63.96484375,-79.58984375
4,1734037508712.75,-36.62109375,-28.3203125,-63.96484375,-5.37109375
5,1734037508716.6562,2.44140625,-25.390625,-59.5703125,32.2265625
6,1734037508720.5625,-13.671875,-35.15625,-54.19921875,-10.25390625
7,1734037508724.4688,-52.734375,-34.66796875,-53.22265625,-67.87109375
8,1734037508728.375,-35.15625,-20.01953125,-49.8046875,-29.78515625
9,1734037508732.2812,8.7890625,-16.6015625,-44.43359375,32.71484375
10,1734037508736.1875,2.44140625,-24.4140625,-37.59765625,10.7421875
11,1734037508740.0938,-36.62109375,-26.85546875,-35.15625,-69.82421875
0,1734037508744,-25.390625,-25.390625,-36.62109375,-45.8984375
1,1734037508747.9062,10.25390625,-33.203125,-38.57421875,35.15625
2,1734037508751.8125,14.6484375,-31.25,-35.15625,21.484375
3,1734037508755.7188,-16.6015625,-24.4140625,-37.109375,-75.68359375
4,1734037508759.625,-28.80859375,-32.71484375,-38.0859375,-68.359375
5,1734037508763.5312,-4.8828125,-42.48046875,-29.78515625,25.87890625
6,1734037508767.4375,-6.34765625,-38.0859375,-29.78515625,24.4140625
7,1734037508771.3438,-28.3203125,-34.1796875,-32.71484375,-49.8046875
8,1734037508775.25,-38.0859375,-34.66796875,-32.2265625,-77.1484375
9,1734037508779.1562,-10.25390625,-35.15625,-28.3203125,-0.9765625
10,1734037508783.0625,-2.9296875,-34.1796875,-29.78515625,32.71484375
11,1734037508786.9688,-27.83203125,-31.25,-31.25,-19.53125
0,1734037508790.875,-36.62109375,-34.1796875,-30.2734375,-64.94140625
1,1734037508794.7812,-18.5546875,-33.69140625,-26.85546875,-12.20703125
2,1734037508798.6875,0.48828125,-32.71484375,-27.83203125,29.296875
3,1734037508802.5938,-10.7421875,-37.59765625,-31.73828125,-5.37109375
4,1734037508806.5,-30.76171875,-44.43359375,-34.66796875,-62.5
5,1734037508810.4062,-16.6015625,-48.33984375,-28.3203125,-24.90234375
6,1734037508814.3125,7.32421875,-39.0625,-21.484375,42.48046875
7,1734037508818.2188,-1.46484375,-36.62109375,-23.92578125,17.08984375
8,1734037508822.125,-30.2734375,-46.875,-24.90234375,-47.8515625
9,1734037508826.0312,-32.2265625,-48.33984375,-19.53125,-43.9453125
10,1734037508829.9375,-20.5078125,-36.62109375,-14.6484375,18.06640625
11,1734037508833.8438,-18.5546875,-30.76171875,-10.25390625,24.4140625
0,1734037508837.75,-27.83203125,-39.55078125,-8.30078125,-32.71484375
1,1734037508841.6562,-41.015625,-46.38671875,-7.32421875,-73.73046875
2,1734037508845.5625,-20.99609375,-49.31640625,-6.34765625,-14.16015625
3,1734037508849.4688,0.9765625,-49.8046875,-10.25390625,23.4375
4,1734037508853.375,-10.25390625,-49.31640625,-14.16015625,-25.390625
5,1734037508857.2812,-30.76171875,-48.33984375,-14.16015625,-83.984375
6,1734037508861.1875,-19.53125,-45.8984375,-12.6953125,-41.9921875
7,1734037508865.0938,-0.9765625,-41.50390625,-6.34765625,26.85546875
8,1734037508869,-14.6484375,-47.36328125,-4.8828125,17.08984375
9,1734037508872.9062,-40.52734375,-44.921875,-5.859375,-56.15234375
10,1734037508876.8125,-33.69140625,-27.34375,-1.953125,-66.40625
11,1734037508880.7188,6.34765625,-28.3203125,-0.48828125,17.578125
0,1734037508884.625,10.25390625,-29.78515625,0,26.85546875
1,1734037508888.5312,-27.83203125,-34.66796875,-3.41796875,-51.7578125
2,1734037508892.4375,-36.62109375,-41.9921875,-7.8125,-68.359375
3,1734037508896.3438,-1.46484375,-48.828125,-6.8359375,7.32421875
4,1734037508900.25,11.23046875,-51.7578125,-0.9765625,31.25
5,1734037508904.1562,-17.578125,-50.78125,-0.9765625,-33.203125
6,1734037508908.0625,-40.0390625,-51.26953125,-1.953125,-71.77734375
7,1734037508911.9688,-19.53125,-47.8515625,-0.48828125,-11.71875
8,1734037508915.875,6.8359375,-54.6875,-3.41796875,41.50390625
9,1734037508919.7812,-7.8125,-47.36328125,-1.953125,-2.44140625
10,1734037508923.6875,-35.15625,-31.73828125,-0.9765625,-83.984375
11,1734037508927.5938,-17.578125,-38.57421875,-4.39453125,-33.203125
0,1734037508931.5,4.39453125,-38.0859375,-2.9296875,33.69140625
1,1734037508935.4062,4.8828125,-36.62109375,-2.44140625,4.8828125
2,1734037508939.3125,-16.11328125,-40.52734375,-2.44140625,-66.40625
3,1734037508943.2188,-30.76171875,-40.52734375,5.37109375,-70.80078125
4,1734037508947.125,-4.8828125,-34.66796875,14.6484375,0.9765625
5,1734037508951.0312,-1.953125,-35.15625,17.08984375,7.32421875
6,1734037508954.9375,-32.2265625,-41.50390625,13.18359375,-61.03515625
7,1734037508958.8438,-20.01953125,-50.29296875,15.625,-63.96484375
8,1734037508962.75,4.8828125,-44.43359375,32.2265625,5.859375
9,1734037508966.6562,-3.90625,-31.73828125,46.875,18.5546875
10,1734037508970.5625,-11.23046875,-38.0859375,52.734375,-16.6015625
11,1734037508974.4688,-17.578125,-43.9453125,65.4296875,-61.03515625
0,1734037508978.375,-7.8125,-29.78515625,82.51953125,-24.4140625
1,1734037508982.2812,9.765625,-20.99609375,94.23828125,29.78515625
2,1734037508986.1875,6.8359375,-29.78515625,96.6796875,1.46484375
3,1734037508990.0938,-22.94921875,-37.59765625,102.05078125,-60.546875
4,1734037508994,-19.04296875,-42.96875,109.86328125,-28.80859375
5,1734037508997.9062,17.578125,-40.0390625,119.140625,45.41015625
6,1734037509001.8125,18.06640625,-33.203125,126.46484375,34.66796875
7,1734037509005.7188,-2.9296875,-49.31640625,127.44140625,-21.97265625
8,1734037509009.625,-11.23046875,-41.015625,132.32421875,-43.45703125
9,1734037509013.5312,2.44140625,-18.5546875,143.06640625,10.25390625
10,1734037509017.4375,15.625,-25.87890625,150.390625,38.0859375
11,1734037509021.3438,-9.765625,-31.73828125,146.97265625,-31.25
0,1734037509025.25,-28.3203125,-36.62109375,145.5078125,-60.546875
1,1734037509029.1562,-0.48828125,-40.0390625,150.390625,15.625
2,1734037509033.0625,13.18359375,-41.9921875,149.4140625,52.24609375
3,1734037509036.9688,-5.37109375,-36.1328125,146.484375,-0.48828125
4,1734037509040.875,-33.69140625,-28.80859375,143.06640625,-67.3828125
5,1734037509044.7812,-20.99609375,-34.1796875,145.01953125,-20.5078125
6,1734037509048.6875,8.7890625,-44.43359375,145.5078125,47.36328125
7,1734037509052.5938,4.8828125,-45.8984375,143.5546875,15.625
8,1734037509056.5,-39.0625,-39.55078125,142.08984375,-77.63671875
9,1734037509060.4062,-30.2734375,-38.0859375,137.6953125,-53.7109375
10,1734037509064.3125,2.9296875,-33.203125,142.08984375,28.80859375
11,1734037509068.2188,-4.8828125,-32.71484375,134.27734375,13.18359375
0,1734037509072.125,-33.69140625,-37.59765625,122.55859375,-59.5703125
1,1734037509076.0312,-32.2265625,-40.0390625,119.62890625,-56.15234375
2,1734037509079.9375,1.953125,-37.109375,117.1875,17.578125
3,1734037509083.8438,5.37109375,-34.66796875,117.1875,35.64453125
4,1734037509087.75,-24.4140625,-38.57421875,112.3046875,-32.2265625
5,1734037509091.6562,-36.62109375,-42.48046875,107.421875,-79.1015625
6,1734037509095.5625,-3.90625,-52.24609375,107.421875,10.7421875
7,1734037509099.4688,-2.9296875,-46.38671875,104.4921875,48.33984375
8,1734037509103.375,-31.73828125,-29.78515625,104.4921875,-15.13671875
9,1734037509107.2812,-47.8515625,-46.875,95.21484375,-68.84765625
10,1734037509111.1875,-29.296875,-51.7578125,88.37890625,-22.4609375
11,1734037509115.0938,-15.13671875,-38.57421875,91.30859375,21.97265625
0,1734037509119,-31.73828125,-43.45703125,82.03125,-11.71875
1,1734037509122.9062,-53.7109375,-54.6875,73.2421875,-71.77734375
2,1734037509126.8125,-50.78125,-47.36328125,80.078125,-55.6640625
3,1734037509130.7188,-26.85546875,-37.59765625,81.0546875,4.8828125
4,1734037509134.625,-16.11328125,-34.66796875,78.125,5.859375
5,1734037509138.5312,-46.38671875,-44.921875,77.63671875,-46.38671875
6,1734037509142.4375,-63.96484375,-52.24609375,74.21875,-63.4765625
7,1734037509146.3438,-30.2734375,-47.8515625,78.125,-2.44140625
8,1734037509150.25,-17.08984375,-45.41015625,83.984375,17.08984375
9,1734037509154.1562,-27.34375,-51.26953125,75.68359375,-18.5546875
10,1734037509158.0625,-48.33984375,-51.7578125,71.2890625,-62.98828125
11,1734037509161.9688,-37.59765625,-33.69140625,77.63671875,-29.296875
0,1734037509165.875,-13.671875,-34.1796875,79.58984375,21.97265625
1,1734037509169.7812,-32.2265625,-32.2265625,73.2421875,-6.8359375
2,1734037509173.6875,-53.22265625,-22.4609375,66.40625,-68.359375
3,1734037509177.5938,-47.36328125,-23.4375,70.3125,-39.0625
4,1734037509181.5,-27.83203125,-28.3203125,74.21875,31.25
5,1734037509185.4062,-15.13671875,-21.484375,73.2421875,30.76171875
6,1734037509189.3125,-49.8046875,-16.11328125,68.84765625,-45.8984375
7,1734037509193.2188,-48.828125,-18.5546875,65.91796875,-47.36328125
8,1734037509197.125,0.48828125,-17.578125,69.3359375,35.15625
9,1734037509201.0312,0.48828125,-34.1796875,57.6171875,47.36328125
10,1734037509204.9375,-39.55078125,-34.1796875,48.33984375,-32.71484375
11,1734037509208.8438,-57.6171875,-17.578125,43.9453125,-79.58984375
0,1734037509212.75,-17.08984375,-12.20703125,44.43359375,5.859375
1,1734037509216.6562,2.44140625,-9.27734375,44.921875,42.96875
2,1734037509220.5625,-27.34375,-12.6953125,41.015625,-20.5078125
3,1734037509224.4688,-41.9921875,-17.08984375,37.59765625,-67.3828125
4,1734037509228.375,-14.16015625,-19.53125,39.0625,-4.39453125
5,1734037509232.2812,-5.37109375,-24.90234375,41.9921875,34.1796875
6,1734037509236.1875,-18.5546875,-26.3671875,33.69140625,-10.7421875
7,1734037509240.0938,-38.0859375,-29.296875,30.2734375,-73.73046875
8,1734037509244,-13.671875,-29.78515625,35.15625,-24.90234375
9,1734037509247.9062,16.11328125,-21.97265625,38.0859375,40.52734375
10,1734037509251.8125,8.30078125,-15.625,35.64453125,-3.41796875
11,1734037509255.7188,-13.18359375,-24.90234375,32.2265625,-58.59375
0,1734037509259.625,-28.80859375,-35.64453125,34.1796875,-43.9453125
1,1734037509263.5312,-4.8828125,-28.80859375,39.55078125,27.34375
2,1734037509267.4375,3.41796875,-24.90234375,39.55078125,30.2734375
3,1734037509271.3438,-11.23046875,-35.15625,35.15625,-31.73828125
4,1734037509275.25,-26.3671875,-40.0390625,35.15625,-63.4765625
5,1734037509279.1562,-5.37109375,-35.64453125,41.50390625,4.8828125
6,1734037509283.0625,15.625,-33.203125,41.015625,44.43359375
7,1734037509286.9688,-2.44140625,-39.55078125,34.66796875,-9.27734375
8,1734037509290.875,-18.5546875,-55.17578125,30.2734375,-53.7109375
9,1734037509294.7812,-7.8125,-51.26953125,32.2265625,-22.94921875
10,1734037509298.6875,6.8359375,-38.0859375,37.109375,11.71875
11,1734037509302.5938,6.34765625,-41.9921875,37.59765625,5.859375
0,1734037509306.5,-14.16015625,-46.38671875,35.64453125,-58.10546875
1,1734037509310.4062,-4.39453125,-45.8984375,31.73828125,-41.9921875
2,1734037509314.3125,28.80859375,-40.0390625,31.25,37.109375
3,1734037509318.2188,23.92578125,-39.0625,30.76171875,41.015625
4,1734037509322.125,-10.25390625,-43.9453125,25.390625,-33.69140625
5,1734037509326.0312,-23.92578125,-44.921875,19.53125,-59.08203125
6,1734037509329.9375,3.90625,-40.52734375,20.5078125,10.25390625
7,1734037509333.8438,28.3203125,-47.36328125,15.13671875,36.62109375
8,1734037509337.75,-4.8828125,-49.8046875,10.7421875,-28.80859375
9,1734037509341.6562,-41.9921875,-40.0390625,11.71875,-89.35546875
10,1734037509345.5625,-5.859375,-45.8984375,10.25390625,-18.06640625
11,1734037509349.4688,13.671875,-46.875,15.625,34.66796875
0,1734037509353.375,-12.20703125,-47.36328125,18.06640625,-13.18359375
1,1734037509357.2812,-39.55078125,-52.734375,13.671875,-81.0546875
2,1734037509361.1875,-13.18359375,-55.6640625,6.8359375,-37.59765625
3,1734037509365.0938,19.04296875,-51.7578125,6.34765625,33.203125
4,1734037509369,-3.41796875,-46.38671875,2.9296875,7.8125
5,1734037509372.9062,-31.73828125,-51.7578125,-6.8359375,-67.87109375
6,1734037509376.8125,-23.92578125,-52.734375,-6.8359375,-54.6875
7,1734037509380.7188,16.11328125,-56.640625,-4.39453125,49.8046875
8,1734037509384.625,16.11328125,-44.921875,-1.953125,45.8984375
9,1734037509388.5312,-36.62109375,-32.2265625,-3.41796875,-66.89453125
10,1734037509392.4375,-41.50390625,-48.33984375,-10.25390625,-84.47265625
11,1734037509396.3438,-3.90625,-51.26953125,-9.765625,-2.9296875
0,1734037509400.25,4.39453125,-41.015625,-4.39453125,29.78515625
1,1734037509404.1562,-22.94921875,-47.8515625,-4.8828125,-20.99609375
2,1734037509408.0625,-39.0625,-57.12890625,-5.859375,-72.265625
3,1734037509411.9688,-12.20703125,-49.31640625,-5.37109375,-19.53125
4,1734037509415.875,-5.859375,-48.33984375,-1.46484375,25.87890625
5,1734037509419.7812,-20.5078125,-51.26953125,-5.859375,-12.20703125
6,1734037509423.6875,-39.0625,-61.03515625,-24.4140625,-68.359375
7,1734037509427.5938,-35.15625,-54.6875,-22.4609375,-33.69140625
8,1734037509431.5,-8.30078125,-28.3203125,-10.25390625,20.5078125
9,1734037509435.4062,-0.48828125,-26.85546875,-19.04296875,3.90625
10,1734037509439.3125,-34.66796875,-33.69140625,-30.76171875,-57.12890625
11,1734037509443.2188,-40.52734375,-24.90234375,-25.87890625,-64.94140625
0,1734037509447.125,-6.8359375,-19.53125,-23.92578125,4.8828125
1,1734037509451.0312,-6.34765625,-30.76171875,-33.203125,20.01953125
2,1734037509454.9375,-38.0859375,-37.59765625,-41.9921875,-57.12890625
3,1734037509458.8438,-57.6171875,-34.1796875,-46.38671875,-90.33203125
4,1734037509462.75,-34.1796875,-34.1796875,-44.921875,-9.765625
5,1734037509466.6562,-23.4375,-43.45703125,-46.38671875,29.296875
6,1734037509470.5625,-45.41015625,-51.7578125,-55.6640625,-32.71484375
7,1734037509474.4688,-62.01171875,-49.8046875,-60.546875,-96.19140625
8,1734037509478.375,-33.69140625,-38.57421875,-56.15234375,-42.96875
9,1734037509482.2812,-14.6484375,-41.9921875,-52.24609375,14.16015625
10,1734037509486.1875,-21.484375,-55.6640625,-50.78125,-1.46484375
11,1734037509490.0938,-44.43359375,-48.828125,-41.50390625,-75.68359375
0,1734037509494,-42.48046875,-35.15625,-35.15625,-77.63671875
1,1734037509497.9062,-1.953125,-40.52734375,-35.15625,13.18359375
2,1734037509501.8125,7.8125,-42.96875,-31.73828125,15.625
3,1734037509505.7188,-22.94921875,-39.0625,-27.83203125,-62.5
4,1734037509509.625,-27.83203125,-45.41015625,-23.92578125,-65.4296875
5,1734037509513.5312,12.6953125,-50.29296875,-21.97265625,20.5078125
6,1734037509517.4375,25.87890625,-39.0625,-14.6484375,31.73828125
7,1734037509521.3438,-6.8359375,-33.69140625,-12.20703125,-50.29296875
8,1734037509525.25,-25.87890625,-36.1328125,-11.71875,-91.796875
9,1734037509529.1562,9.765625,-37.59765625,-4.8828125,-4.8828125
10,1734037509533.0625,27.34375,-38.57421875,-2.9296875,33.69140625
11,1734037509536.9688,-1.953125,-38.0859375,-5.37109375,-27.83203125
0,1734037509540.875,-21.484375,-42.48046875,-2.44140625,-83.984375
1,1734037509544.7812,0.48828125,-44.921875,5.37109375,-31.25
2,1734037509548.6875,13.671875,-40.52734375,11.23046875,25.390625
3,1734037509552.5938,2.44140625,-43.45703125,9.27734375,-12.6953125
4,1734037509556.5,-11.23046875,-48.828125,8.30078125,-73.2421875
5,1734037509560.4062,3.90625,-51.26953125,12.20703125,-44.43359375
6,1734037509564.3125,23.4375,-48.33984375,16.11328125,20.5078125
7,1734037509568.2188,29.78515625,-48.33984375,16.6015625,14.6484375
8,1734037509572.125,7.32421875,-48.828125,15.13671875,-48.828125
9,1734037509576.0312,-12.20703125,-53.7109375,12.20703125,-58.59375
10,1734037509579.9375,10.7421875,-37.109375,18.06640625,1.46484375
11,1734037509583.8438,24.90234375,-23.4375,24.90234375,13.18359375
0,1734037509587.75,2.44140625,-36.62109375,18.06640625,-44.921875
1,1734037509591.6562,-20.5078125,-39.55078125,10.7421875,-86.9140625
2,1734037509595.5625,-2.44140625,-28.3203125,17.578125,-21.484375
3,1734037509599.4688,15.13671875,-22.94921875,22.94921875,17.08984375
4,1734037509603.375,12.6953125,-37.109375,15.13671875,-20.99609375
5,1734037509607.2812,-8.7890625,-43.9453125,11.71875,-68.84765625
6,1734037509611.1875,-5.37109375,-36.62109375,11.23046875,-40.0390625
7,1734037509615.0938,11.71875,-32.2265625,9.765625,5.859375
8,1734037509619,16.11328125,-36.62109375,4.8828125,-5.859375
9,1734037509622.9062,-4.39453125,-38.0859375,0,-75.68359375
10,1734037509626.8125,-18.5546875,-33.203125,-0.48828125,-84.9609375
11,1734037509630.7188,12.20703125,-36.1328125,-3.41796875,-10.25390625
0,1734037509634.625,18.5546875,-39.55078125,-3.90625,-4.8828125
1,1734037509638.5312,-7.8125,-40.52734375,-4.8828125,-67.87109375
2,1734037509642.4375,-20.99609375,-38.0859375,-5.37109375,-92.28515625
3,1734037509646.3438,7.32421875,-34.1796875,-0.9765625,-23.4375
4,1734037509650.25,28.80859375,-35.64453125,4.8828125,10.25390625
5,1734037509654.1562,3.41796875,-35.64453125,1.46484375,-51.26953125
6,1734037509658.0625,-25.87890625,-41.9921875,-3.41796875,-106.93359375
7,1734037509661.9688,0.9765625,-41.9921875,0.48828125,-48.828125
8,1734037509665.875,39.55078125,-41.9921875,-2.44140625,28.3203125
9,1734037509669.7812,17.578125,-32.2265625,-5.37109375,-16.11328125
10,1734037509673.6875,-22.94921875,-12.20703125,-1.46484375,-105.46875
11,1734037509677.5938,0.48828125,-20.5078125,-4.39453125,-68.84765625
0,1734037509681.5,24.90234375,-28.80859375,-9.27734375,5.859375
1,1734037509685.4062,6.34765625,-36.1328125,-8.7890625,-6.8359375
2,1734037509689.3125,-12.20703125,-43.9453125,-9.27734375,-73.2421875
3,1734037509693.2188,-2.9296875,-38.57421875,-14.6484375,-63.96484375
4,1734037509697.125,25.87890625,-33.203125,-20.01953125,1.46484375
5,1734037509701.0312,39.0625,-36.1328125,-21.484375,9.27734375
6,1734037509704.9375,8.30078125,-39.0625,-20.99609375,-49.31640625
7,1734037509708.8438,-6.8359375,-42.96875,-18.06640625,-61.03515625
8,1734037509712.75,29.78515625,-37.109375,-13.18359375,4.39453125
9,1734037509716.6562,39.55078125,-23.92578125,-14.6484375,5.37109375
10,1734037509720.5625,22.94921875,-30.2734375,-15.625,-35.64453125
11,1734037509724.4688,3.90625,-36.62109375,-12.6953125,-84.9609375
0,1734037509728.375,17.578125,-32.2265625,-11.71875,-37.59765625
1,1734037509732.2812,35.64453125,-25.390625,-5.859375,29.296875
2,1734037509736.1875,32.71484375,-27.34375,-5.859375,6.8359375
3,1734037509740.0938,6.8359375,-33.69140625,-11.71875,-60.546875
4,1734037509744,8.7890625,-31.73828125,-13.18359375,-43.9453125
5,1734037509747.9062,29.78515625,-36.62109375,-13.671875,24.90234375
6,1734037509751.8125,23.4375,-40.0390625,-17.08984375,15.13671875
7,1734037509755.7188,5.37109375,-52.734375,-20.5078125,-39.55078125
8,1734037509759.625,-0.9765625,-49.8046875,-17.578125,-62.01171875
9,1734037509763.5312,22.4609375,-32.71484375,-11.23046875,-5.37109375
10,1734037509767.4375,31.25,-44.921875,-20.5078125,24.4140625
11,1734037509771.3438,-2.9296875,-53.22265625,-27.34375,-40.52734375
0,1734037509775.25,-30.76171875,-45.41015625,-26.3671875,-98.6328125
1,1734037509779.1562,-3.41796875,-45.41015625,-25.87890625,-32.2265625
2,1734037509783.0625,16.11328125,-47.36328125,-25.390625,22.94921875
3,1734037509786.9688,-8.30078125,-51.7578125,-31.73828125,-26.85546875
4,1734037509790.875,-42.96875,-55.17578125,-36.1328125,-86.9140625
5,1734037509794.7812,-20.5078125,-50.29296875,-32.71484375,-38.57421875
6,1734037509798.6875,13.671875,-50.78125,-33.69140625,42.96875
7,1734037509802.5938,4.39453125,-48.33984375,-35.15625,17.578125
8,1734037509806.5,-25.87890625,-44.43359375,-38.57421875,-73.2421875
9,1734037509810.4062,-17.578125,-48.828125,-39.0625,-53.7109375
10,1734037509814.3125,13.671875,-45.8984375,-34.66796875,26.3671875
11,1734037509818.2188,15.625,-42.96875,-36.62109375,38.0859375
0,1734037509822.125,-17.08984375,-48.828125,-39.0625,-30.76171875
1,1734037509826.0312,-26.85546875,-55.6640625,-41.9921875,-53.22265625
2,1734037509829.9375,17.578125,-46.38671875,-38.57421875,33.69140625
3,1734037509833.8438,21.484375,-34.66796875,-36.1328125,50.78125
4,1734037509837.75,-10.25390625,-41.9921875,-42.96875,-19.04296875
5,1734037509841.6562,-18.06640625,-52.734375,-44.43359375,-60.546875
6,1734037509845.5625,14.6484375,-51.26953125,-35.15625,14.16015625
7,1734037509849.4688,24.90234375,-38.0859375,-25.87890625,67.87109375
8,1734037509853.375,0,-34.66796875,-30.76171875,7.8125
9,1734037509857.2812,-13.671875,-47.8515625,-41.50390625,-54.19921875
10,1734037509861.1875,1.46484375,-49.31640625,-37.59765625,-7.32421875
11,1734037509865.0938,18.06640625,-37.59765625,-30.2734375,48.33984375
0,1734037509869,19.53125,-39.0625,-29.296875,34.1796875
1,1734037509872.9062,2.9296875,-52.734375,-28.3203125,-20.5078125
2,1734037509876.8125,-2.9296875,-50.29296875,-21.97265625,-12.20703125
3,1734037509880.7188,13.18359375,-41.015625,-18.5546875,60.546875
4,1734037509884.625,16.6015625,-41.015625,-18.5546875,67.87109375
5,1734037509888.5312,0.48828125,-54.19921875,-22.4609375,12.20703125
6,1734037509892.4375,-6.8359375,-55.17578125,-16.6015625,-15.13671875
7,1734037509896.3438,9.765625,-27.34375,-10.7421875,27.83203125
8,1734037509900.25,30.2734375,-25.390625,-15.625,61.5234375
9,1734037509904.1562,15.13671875,-34.1796875,-18.5546875,14.6484375
10,1734037509908.0625,-16.6015625,-38.0859375,-21.484375,-42.48046875
11,1734037509911.9688,9.27734375,-32.71484375,-18.06640625,7.8125
0,1734037509915.875,38.0859375,-27.34375,-5.859375,72.265625
1,1734037509919.7812,23.4375,-31.25,-0.48828125,43.45703125
2,1734037509923.6875,-6.8359375,-33.203125,-6.34765625,-43.45703125
3,1734037509927.5938,2.44140625,-33.203125,-3.41796875,-16.11328125
4,1734037509931.5,24.90234375,-32.71484375,2.44140625,67.3828125
5,1734037509935.4062,25.390625,-31.25,2.44140625,59.08203125
6,1734037509939.3125,-5.859375,-29.296875,0.9765625,-21.484375
7,1734037509943.2188,-11.71875,-22.94921875,3.41796875,-29.296875
8,1734037509947.125,23.92578125,-17.08984375,6.34765625,47.36328125
9,1734037509951.0312,41.50390625,-21.484375,11.23046875,77.1484375
10,1734037509954.9375,17.08984375,-16.11328125,20.99609375,-2.44140625
11,1734037509958.8438,-4.8828125,-11.23046875,22.94921875,-60.05859375
0,1734037509962.75,22.94921875,-14.6484375,20.99609375,20.01953125
1,1734037509966.6562,31.25,-11.71875,23.92578125,59.5703125
2,1734037509970.5625,15.625,-8.30078125,26.3671875,8.7890625
3,1734037509974.4688,2.44140625,-9.765625,27.34375,-48.828125
4,1734037509978.375,17.578125,-13.18359375,34.1796875,2.9296875
5,1734037509982.2812,36.62109375,-15.625,43.45703125,66.89453125
6,1734037509986.1875,25.390625,-16.11328125,51.26953125,35.64453125
7,1734037509990.0938,-1.46484375,-12.6953125,51.7578125,-40.0390625
8,1734037509994,8.30078125,-17.08984375,56.15234375,-12.6953125
9,1734037509997.9062,25.390625,-10.25390625,76.171875,71.2890625
10,1734037510001.8125,-4.39453125,6.8359375,84.47265625,41.015625
11,1734037510005.7188,-34.66796875,-6.8359375,75.1953125,-36.62109375
0,1734037510009.625,-32.71484375,-18.5546875,78.61328125,-43.45703125
1,1734037510013.5312,-10.7421875,-12.20703125,93.26171875,32.2265625
2,1734037510017.4375,-7.32421875,-4.39453125,96.19140625,45.8984375
3,1734037510021.3438,-16.6015625,-3.90625,94.23828125,-13.671875
4,1734037510025.25,-25.87890625,-12.20703125,100.5859375,-43.9453125
5,1734037510029.1562,-11.23046875,-22.4609375,114.2578125,18.06640625
6,1734037510033.0625,-1.953125,-25.390625,118.65234375,46.38671875
7,1734037510036.9688,-22.4609375,-26.85546875,112.79296875,-2.9296875
8,1734037510040.875,-33.69140625,-39.55078125,105.95703125,-44.921875
9,1734037510044.7812,-27.34375,-38.57421875,108.3984375,-16.6015625
10,1734037510048.6875,-22.4609375,-29.296875,109.375,15.625
11,1734037510052.5938,-16.11328125,-40.52734375,104.4921875,1.953125
0,1734037510056.5,-41.9921875,-40.52734375,100.5859375,-61.5234375
1,1734037510060.4062,-44.921875,-29.296875,99.12109375,-70.80078125
2,1734037510064.3125,-6.34765625,-29.78515625,103.515625,13.18359375
3,1734037510068.2188,0.9765625,-35.64453125,108.88671875,31.73828125
4,1734037510072.125,-35.15625,-41.015625,104.4921875,-47.36328125
5,1734037510076.0312,-41.50390625,-44.43359375,99.12109375,-69.82421875
6,1734037510079.9375,-6.8359375,-41.015625,105.95703125,7.8125
7,1734037510083.8438,4.8828125,-48.828125,106.93359375,45.8984375
8,1734037510087.75,-23.92578125,-47.8515625,101.07421875,-21.97265625
9,1734037510091.6562,-60.546875,-31.73828125,98.14453125,-98.14453125
10,1734037510095.5625,-39.55078125,-31.73828125,96.19140625,-39.0625
11,1734037510099.4688,-11.71875,-41.9921875,103.515625,22.4609375
0,1734037510103.375,-26.3671875,-43.9453125,104.4921875,-15.13671875
1,1734037510107.2812,-57.12890625,-38.57421875,99.12109375,-83.984375
2,1734037510111.1875,-44.921875,-44.43359375,97.65625,-51.7578125
3,1734037510115.0938,-18.5546875,-44.921875,98.14453125,19.04296875
4,1734037510119,-18.06640625,-33.69140625,93.26171875,6.8359375
5,1734037510122.9062,-36.62109375,-38.0859375,84.9609375,-69.82421875
6,1734037510126.8125,-37.109375,-41.50390625,84.9609375,-72.75390625
7,1734037510130.7188,-11.71875,-41.9921875,87.40234375,8.30078125
8,1734037510134.625,-13.671875,-34.1796875,84.47265625,6.8359375
9,1734037510138.5312,-49.31640625,-25.87890625,77.63671875,-70.3125
10,1734037510142.4375,-52.24609375,-38.0859375,67.3828125,-81.54296875
11,1734037510146.3438,-16.11328125,-43.45703125,64.453125,-2.44140625
0,1734037510150.25,-24.4140625,-32.71484375,66.40625,6.34765625
1,1734037510154.1562,-44.43359375,-33.69140625,59.08203125,-47.36328125
2,1734037510158.0625,-51.26953125,-45.41015625,56.640625,-81.54296875
3,1734037510161.9688,-36.62109375,-42.96875,61.5234375,-35.15625
4,1734037510165.875,-18.5546875,-27.83203125,58.59375,3.90625
5,1734037510169.7812,-21.484375,-27.83203125,57.12890625,-21.97265625
6,1734037510173.6875,-39.0625,-42.48046875,52.734375,-81.54296875
7,1734037510177.5938,-32.71484375,-37.59765625,51.7578125,-66.89453125
8,1734037510181.5,-13.671875,-20.99609375,52.734375,-4.39453125
9,1734037510185.4062,-14.6484375,-23.4375,49.8046875,-4.39453125
10,1734037510189.3125,-41.9921875,-33.203125,47.8515625,-76.171875
11,1734037510193.2188,-53.7109375,-38.0859375,46.38671875,-88.8671875
0,1734037510197.125,-30.76171875,-33.69140625,48.33984375,-14.16015625
1,1734037510201.0312,-23.4375,-34.1796875,43.9453125,6.8359375
2,1734037510204.9375,-40.52734375,-41.9921875,39.55078125,-55.6640625
3,1734037510208.8438,-65.91796875,-40.0390625,41.015625,-91.30859375
4,1734037510212.75,-41.015625,-38.0859375,42.96875,-10.25390625
5,1734037510216.6562,-16.6015625,-39.0625,44.921875,32.71484375
6,1734037510220.5625,-25.87890625,-46.875,37.59765625,-9.765625
7,1734037510224.4688,-47.36328125,-41.015625,33.69140625,-70.80078125
8,1734037510228.375,-37.109375,-22.4609375,35.64453125,-49.8046875
9,1734037510232.2812,-9.27734375,-31.25,31.73828125,11.23046875
10,1734037510236.1875,-21.97265625,-39.0625,29.78515625,-6.8359375
11,1734037510240.0938,-59.08203125,-36.1328125,28.3203125,-82.51953125
0,1734037510244,-53.22265625,-41.50390625,28.3203125,-63.96484375
1,1734037510247.9062,-16.6015625,-45.41015625,27.83203125,16.6015625
2,1734037510251.8125,-14.6484375,-43.45703125,22.4609375,12.6953125
3,1734037510255.7188,-43.45703125,-42.48046875,25.390625,-56.640625
4,1734037510259.625,-46.38671875,-41.9921875,21.97265625,-66.40625
5,1734037510263.5312,-11.71875,-43.45703125,15.13671875,17.578125
6,1734037510267.4375,-6.8359375,-37.59765625,21.484375,39.0625
7,1734037510271.3438,-23.92578125,-25.87890625,24.90234375,-17.08984375
8,1734037510275.25,-41.015625,-31.25,19.04296875,-62.5
9,1734037510279.1562,-11.23046875,-47.36328125,12.6953125,2.9296875
10,1734037510283.0625,11.23046875,-40.0390625,14.16015625,44.921875
11,1734037510286.9688,-18.5546875,-21.484375,17.08984375,-12.6953125
0,1734037510290.875,-40.0390625,-29.78515625,17.08984375,-62.98828125
1,1734037510294.7812,-19.53125,-32.71484375,21.484375,-28.80859375
2,1734037510298.6875,0.48828125,-30.2734375,22.94921875,35.15625
3,1734037510302.5938,-9.27734375,-34.1796875,21.484375,17.08984375
4,1734037510306.5,-38.0859375,-41.015625,19.04296875,-46.875
5,1734037510310.4062,-34.1796875,-42.48046875,19.04296875,-26.85546875
6,1734037510314.3125,2.44140625,-30.2734375,27.83203125,43.45703125
7,1734037510318.2188,6.34765625,-24.90234375,29.78515625,45.8984375
8,1734037510322.125,-22.4609375,-29.78515625,21.97265625,-20.01953125
9,1734037510326.0312,-28.80859375,-40.52734375,18.06640625,-30.2734375
10,1734037510329.9375,-9.27734375,-24.90234375,25.390625,31.73828125
11,1734037510333.8438,-0.9765625,-4.39453125,22.94921875,38.0859375
0,1734037510337.75,-15.625,-18.06640625,15.625,-10.25390625
1,1734037510341.6562,-55.17578125,-24.4140625,13.18359375,-61.03515625
2,1734037510345.5625,-44.921875,-23.4375,9.765625,-13.671875
3,1734037510349.4688,-14.16015625,-26.3671875,13.671875,39.55078125
4,1734037510353.375,-23.92578125,-27.83203125,6.8359375,9.27734375
5,1734037510357.2812,-58.10546875,-28.80859375,0.48828125,-59.08203125
6,1734037510361.1875,-44.921875,-26.3671875,10.25390625,-35.64453125
7,1734037510365.0938,-12.20703125,-17.578125,19.53125,23.92578125
8,1734037510369,-9.765625,-25.87890625,14.6484375,22.4609375
9,1734037510372.9062,-35.15625,-32.71484375,5.37109375,-39.55078125
10,1734037510376.8125,-51.26953125,-25.390625,11.23046875,-53.22265625
11,1734037510380.7188,-13.18359375,-24.4140625,21.97265625,32.2265625
0,1734037510384.625,-4.8828125,-29.78515625,17.08984375,48.828125
1,1734037510388.5312,-43.45703125,-38.0859375,10.25390625,-28.3203125
2,1734037510392.4375,-52.734375,-41.50390625,11.23046875,-69.82421875
3,1734037510396.3438,-30.2734375,-42.96875,14.16015625,-3.41796875
4,1734037510400.25,-33.69140625,-42.96875,14.6484375,29.78515625
5,1734037510404.1562,-54.19921875,-44.43359375,14.6484375,-23.92578125
6,1734037510408.0625,-78.61328125,-43.9453125,20.5078125,-76.171875
7,1734037510411.9688,-58.10546875,-42.96875,21.97265625,-22.94921875
8,1734037510415.875,-31.73828125,-42.96875,15.625,23.92578125
9,1734037510419.7812,-48.33984375,-40.52734375,7.32421875,-16.6015625
10,1734037510423.6875,-65.4296875,-43.9453125,4.8828125,-72.75390625
11,1734037510427.5938,-58.10546875,-49.31640625,2.44140625,-41.015625
0,1734037510431.5,-23.4375,-45.8984375,0.9765625,38.0859375
1,1734037510435.4062,-23.92578125,-27.83203125,8.30078125,15.625
2,1734037510439.3125,-69.3359375,-31.73828125,2.9296875,-67.3828125
3,1734037510443.2188,-71.77734375,-42.48046875,5.859375,-56.15234375
4,1734037510447.125,-36.1328125,-34.1796875,14.16015625,19.53125
5,1734037510451.0312,-33.203125,-29.296875,10.25390625,26.3671875
6,1734037510454.9375,-56.640625,-33.69140625,0.9765625,-34.66796875
7,1734037510458.8438,-62.01171875,-41.015625,-5.859375,-71.2890625
8,1734037510462.75,-36.62109375,-36.62109375,-3.90625,-9.765625
9,1734037510466.6562,-36.1328125,-25.390625,1.46484375,20.5078125
10,1734037510470.5625,-45.8984375,-35.15625,1.46484375,-13.671875
11,1734037510474.4688,-58.10546875,-42.96875,-0.9765625,-71.2890625
0,1734037510478.375,-40.52734375,-38.0859375,6.8359375,-33.203125
1,1734037510482.2812,-17.08984375,-31.73828125,10.7421875,31.73828125
2,1734037510486.1875,-17.578125,-30.76171875,7.8125,11.23046875
3,1734037510490.0938,-41.50390625,-41.015625,-0.9765625,-59.08203125
4,1734037510494,-48.828125,-41.015625,3.90625,-44.43359375
5,1734037510497.9062,-22.4609375,-32.71484375,13.18359375,40.0390625
6,1734037510501.8125,-11.23046875,-27.34375,10.25390625,44.921875
7,1734037510505.7188,-23.4375,-40.52734375,7.8125,-4.8828125
8,1734037510509.625,-44.43359375,-40.52734375,6.34765625,-38.57421875
9,1734037510513.5312,-38.57421875,-24.4140625,9.27734375,0.9765625
10,1734037510517.4375,-12.6953125,-29.78515625,4.39453125,46.875
11,1734037510521.3438,-26.3671875,-36.62109375,-0.9765625,-3.90625
0,1734037510525.25,-49.8046875,-36.1328125,-4.8828125,-68.359375
1,1734037510529.1562,-32.2265625,-37.59765625,-5.37109375,-4.39453125
2,1734037510533.0625,-10.7421875,-41.9921875,-3.41796875,61.5234375
3,1734037510536.9688,-25.87890625,-42.96875,-3.90625,23.4375
4,1734037510540.875,-59.08203125,-46.875,-13.18359375,-55.17578125
5,1734037510544.7812,-43.9453125,-44.43359375,-18.5546875,-28.80859375
6,1734037510548.6875,-2.9296875,-43.45703125,-12.20703125,41.015625
7,1734037510552.5938,-4.8828125,-52.734375,-11.23046875,36.62109375
8,1734037510556.5,-51.7578125,-51.7578125,-14.16015625,-35.15625
9,1734037510560.4062,-48.33984375,-54.19921875,-19.53125,-44.921875
10,1734037510564.3125,-9.765625,-57.12890625,-19.53125,30.76171875
11,1734037510568.2188,-10.25390625,-53.7109375,-14.6484375,35.15625
0,1734037510572.125,-43.45703125,-52.24609375,-15.13671875,-36.62109375
1,1734037510576.0312,-53.7109375,-53.22265625,-16.6015625,-60.546875
2,1734037510579.9375,-17.578125,-47.8515625,-13.671875,14.16015625
3,1734037510583.8438,-7.32421875,-44.921875,-13.671875,48.828125
4,1734037510587.75,-26.85546875,-47.36328125,-16.11328125,-3.41796875
5,1734037510591.6562,-41.50390625,-45.8984375,-14.16015625,-51.7578125
6,1734037510595.5625,-14.16015625,-41.9921875,-12.20703125,8.30078125
7,1734037510599.4688,-1.46484375,-31.73828125,-7.8125,50.29296875
8,1734037510603.375,-23.4375,-27.34375,-10.25390625,-7.32421875
9,1734037510607.2812,-45.41015625,-42.48046875,-20.99609375,-66.89453125
10,1734037510611.1875,-30.2734375,-50.78125,-24.90234375,-28.3203125
11,1734037510615.0938,-10.25390625,-35.15625,-17.08984375,30.2734375
0,1734037510619,-24.90234375,-33.203125,-20.99609375,10.7421875
1,1734037510622.9062,-42.48046875,-48.33984375,-26.3671875,-47.8515625
2,1734037510626.8125,-46.38671875,-48.33984375,-21.484375,-49.8046875
3,1734037510630.7188,-20.5078125,-40.0390625,-21.97265625,14.6484375
4,1734037510634.625,-10.25390625,-38.0859375,-27.83203125,20.01953125
5,1734037510638.5312,-24.90234375,-46.38671875,-30.76171875,-36.1328125
6,1734037510642.4375,-39.0625,-48.33984375,-33.203125,-70.3125
7,1734037510646.3438,-17.08984375,-34.66796875,-30.76171875,-16.6015625
8,1734037510650.25,-18.5546875,-34.1796875,-32.71484375,14.16015625
9,1734037510654.1562,-41.50390625,-45.41015625,-37.109375,-22.94921875
10,1734037510658.0625,-61.5234375,-52.734375,-39.55078125,-83.0078125
11,1734037510661.9688,-52.24609375,-50.78125,-41.9921875,-46.875
0,1734037510665.875,-11.23046875,-43.45703125,-36.1328125,30.76171875
1,1734037510669.7812,-16.6015625,-41.015625,-33.69140625,2.9296875
2,1734037510673.6875,-57.6171875,-41.9921875,-37.109375,-74.70703125
3,1734037510677.5938,-48.828125,-37.59765625,-30.76171875,-57.12890625
4,1734037510681.5,-11.23046875,-38.57421875,-25.390625,20.99609375
5,1734037510685.4062,-14.16015625,-47.36328125,-30.2734375,24.4140625
6,1734037510689.3125,-43.45703125,-46.875,-30.2734375,-48.828125
7,1734037510693.2188,-54.6875,-47.36328125,-29.296875,-69.82421875
8,1734037510697.125,-22.4609375,-42.96875,-33.69140625,7.8125
9,1734037510701.0312,0,-45.41015625,-36.62109375,44.921875
10,1734037510704.9375,-37.59765625,-45.41015625,-35.64453125,-24.4140625
11,1734037510708.8438,-72.265625,-37.109375,-36.62109375,-89.35546875
0,1734037510712.75,-36.62109375,-39.0625,-38.57421875,-20.5078125
1,1734037510716.6562,-0.48828125,-31.25,-28.3203125,31.73828125
2,1734037510720.5625,-18.5546875,-26.85546875,-27.34375,-8.7890625
3,1734037510724.4688,-53.22265625,-31.73828125,-35.64453125,-74.21875
4,1734037510728.375,-40.52734375,-35.64453125,-40.52734375,-25.87890625
5,1734037510732.2812,-11.71875,-37.59765625,-44.43359375,43.9453125
6,1734037510736.1875,-22.94921875,-32.71484375,-41.9921875,6.8359375
7,1734037510740.0938,-61.03515625,-37.59765625,-44.43359375,-73.2421875
8,1734037510744,-48.828125,-42.48046875,-43.9453125,-55.17578125
9,1734037510747.9062,-8.7890625,-24.90234375,-39.55078125,20.5078125
10,1734037510751.8125,-22.94921875,-10.7421875,-39.55078125,0.48828125
11,1734037510755.7188,-54.6875,-23.4375,-43.45703125,-71.2890625
0,1734037510759.625,-63.96484375,-29.296875,-43.9453125,-85.44921875
1,1734037510763.5312,-28.3203125,-24.90234375,-41.9921875,-4.39453125
2,1734037510767.4375,-10.7421875,-20.99609375,-42.48046875,20.5078125
3,1734037510771.3438,-38.0859375,-27.83203125,-47.36328125,-32.2265625
4,1734037510775.25,-56.15234375,-36.1328125,-50.29296875,-75.68359375
5,1734037510779.1562,-43.45703125,-35.15625,-48.828125,-32.71484375
6,1734037510783.0625,-28.3203125,-32.71484375,-45.41015625,14.6484375
7,1734037510786.9688,-42.96875,-32.2265625,-46.38671875,-14.6484375
8,1734037510790.875,-62.5,-43.45703125,-49.8046875,-71.77734375
9,1734037510794.7812,-47.8515625,-35.64453125,-46.38671875,-47.36328125
10,1734037510798.6875,-35.15625,-20.01953125,-42.48046875,0.48828125
11,1734037510802.5938,-45.8984375,-29.296875,-43.9453125,-9.765625
0,1734037510806.5,-72.265625,-32.71484375,-45.41015625,-82.51953125
1,1734037510810.4062,-76.171875,-31.73828125,-47.36328125,-92.7734375
2,1734037510814.3125,-48.828125,-38.0859375,-46.875,-14.6484375
3,1734037510818.2188,-44.43359375,-39.0625,-43.9453125,-0.48828125
4,1734037510822.125,-63.96484375,-33.203125,-40.52734375,-68.84765625
5,1734037510826.0312,-63.4765625,-37.109375,-41.50390625,-105.95703125
6,1734037510829.9375,-41.9921875,-32.71484375,-32.71484375,-39.0625
7,1734037510833.8438,-31.25,-36.62109375,-31.25,7.8125
8,1734037510837.75,-47.8515625,-42.96875,-32.71484375,-34.1796875
9,1734037510841.6562,-87.890625,-39.55078125,-26.3671875,-112.79296875
10,1734037510845.5625,-64.94140625,-40.52734375,-22.94921875,-62.98828125
11,1734037510849.4688,-26.3671875,-32.2265625,-22.94921875,-0.9765625
0,1734037510853.375,-42.48046875,-27.34375,-22.94921875,-35.15625
1,1734037510857.2812,-67.3828125,-35.15625,-20.01953125,-112.79296875
2,1734037510861.1875,-58.59375,-41.9921875,-17.578125,-92.7734375
3,1734037510865.0938,-26.85546875,-37.59765625,-18.5546875,-12.20703125
4,1734037510869,-25.87890625,-35.64453125,-17.578125,-25.390625
5,1734037510872.9062,-53.7109375,-36.1328125,-17.578125,-93.75
6,1734037510876.8125,-50.29296875,-35.15625,-17.578125,-96.6796875
7,1734037510880.7188,-15.13671875,-52.734375,-20.01953125,-19.04296875
8,1734037510884.625,-21.484375,-50.29296875,-20.01953125,-20.99609375
9,1734037510888.5312,-50.78125,-31.73828125,-17.578125,-91.30859375
10,1734037510892.4375,-52.24609375,-38.0859375,-16.11328125,-104.98046875
11,1734037510896.3438,-33.203125,-38.57421875,-13.671875,-36.62109375
0,1734037510900.25,-24.90234375,-33.69140625,-16.6015625,-4.39453125
1,1734037510904.1562,-36.62109375,-36.1328125,-19.53125,-43.45703125
2,1734037510908.0625,-43.9453125,-41.50390625,-19.53125,-88.8671875
3,1734037510911.9688,-23.4375,-41.50390625,-12.6953125,-40.52734375
4,1734037510915.875,3.41796875,-35.64453125,-7.8125,16.11328125
5,1734037510919.7812,1.953125,-28.80859375,-12.6953125,-12.6953125
6,1734037510923.6875,-37.59765625,-41.50390625,-19.04296875,-66.40625
7,1734037510927.5938,-41.015625,-42.96875,-20.5078125,-61.5234375
8,1734037510931.5,-9.27734375,-18.06640625,-15.625,-10.25390625
9,1734037510935.4062,1.46484375,-20.5078125,-15.625,-6.8359375
10,1734037510939.3125,-26.3671875,-30.2734375,-22.94921875,-74.70703125
11,1734037510943.2188,-37.59765625,-29.78515625,-32.71484375,-99.12109375
0,1734037510947.125,-14.6484375,-23.92578125,-29.78515625,-22.94921875
1,1734037510951.0312,-8.30078125,-22.4609375,-32.71484375,-2.44140625
2,1734037510954.9375,-28.80859375,-32.2265625,-41.015625,-61.5234375
3,1734037510958.8438,-44.921875,-23.92578125,-32.71484375,-99.12109375
4,1734037510962.75,-14.6484375,-17.08984375,-28.3203125,-34.66796875
5,1734037510966.6562,0.48828125,-31.25,-37.109375,13.18359375
6,1734037510970.5625,-9.765625,-48.33984375,-41.015625,-19.53125
7,1734037510974.4688,-32.71484375,-41.015625,-39.0625,-86.42578125
8,1734037510978.375,-32.71484375,-26.3671875,-41.015625,-64.94140625
9,1734037510982.2812,-0.9765625,-32.71484375,-40.0390625,8.7890625
10,1734037510986.1875,-2.44140625,-42.48046875,-37.59765625,2.9296875
11,1734037510990.0938,-37.59765625,-38.0859375,-41.9921875,-76.66015625
0,1734037510994,-34.1796875,-38.0859375,-46.875,-78.61328125
1,1734037510997.9062,1.46484375,-40.0390625,-54.6875,2.44140625
2,1734037511001.8125,2.9296875,-40.0390625,-63.4765625,10.25390625
3,1734037511005.7188,-25.390625,-37.59765625,-62.5,-62.98828125
4,1734037511009.625,-44.921875,-38.0859375,-60.05859375,-89.35546875
5,1734037511013.5312,-3.90625,-41.015625,-61.5234375,0.9765625
6,1734037511017.4375,14.6484375,-40.52734375,-67.3828125,40.0390625
7,1734037511021.3438,-21.484375,-29.78515625,-70.80078125,-38.57421875
8,1734037511025.25,-44.921875,-27.83203125,-73.2421875,-100.5859375
9,1734037511029.1562,-23.92578125,-29.296875,-71.2890625,-37.109375
10,1734037511033.0625,-7.32421875,-28.80859375,-71.2890625,19.04296875
11,1734037511036.9688,-21.97265625,-34.1796875,-71.77734375,-22.94921875
0,1734037511040.875,-33.203125,-39.55078125,-71.77734375,-84.47265625
1,1734037511044.7812,-14.16015625,-36.1328125,-72.75390625,-53.7109375
2,1734037511048.6875,11.71875,-32.71484375,-68.359375,13.18359375
3,1734037511052.5938,7.32421875,-34.66796875,-67.87109375,-0.48828125
4,1734037511056.5,-25.390625,-43.45703125,-72.75390625,-73.2421875
5,1734037511060.4062,-26.3671875,-49.8046875,-71.77734375,-69.82421875
6,1734037511064.3125,6.8359375,-40.0390625,-67.87109375,6.8359375
7,1734037511068.2188,8.30078125,-38.57421875,-68.84765625,14.16015625
8,1734037511072.125,-20.01953125,-50.78125,-69.3359375,-40.0390625
9,1734037511076.0312,-26.85546875,-46.38671875,-67.3828125,-65.91796875
10,1734037511079.9375,4.8828125,-27.83203125,-65.91796875,-6.34765625
11,1734037511083.8438,20.01953125,-23.4375,-63.96484375,27.83203125
0,1734037511087.75,2.44140625,-35.64453125,-64.453125,-9.27734375
1,1734037511091.6562,-21.97265625,-44.43359375,-64.453125,-63.96484375
2,1734037511095.5625,-6.8359375,-38.57421875,-67.3828125,-34.66796875
3,1734037511099.4688,17.578125,-41.015625,-76.171875,17.08984375
4,1734037511103.375,6.8359375,-52.24609375,-78.125,3.41796875
5,1734037511107.2812,-15.625,-60.05859375,-79.58984375,-45.8984375
6,1734037511111.1875,-5.37109375,-41.50390625,-79.58984375,-55.17578125
7,1734037511115.0938,13.671875,-32.2265625,-77.1484375,-0.9765625
8,1734037511119,8.30078125,-43.9453125,-79.58984375,20.01953125
9,1734037511122.9062,-19.53125,-44.43359375,-83.49609375,-44.43359375
10,1734037511126.8125,-27.83203125,-35.15625,-78.61328125,-75.1953125
11,1734037511130.7188,5.859375,-38.0859375,-75.1953125,10.7421875
0,1734037511134.625,9.27734375,-41.015625,-78.61328125,40.0390625
1,1734037511138.5312,-15.13671875,-37.59765625,-77.1484375,-30.76171875
2,1734037511142.4375,-41.015625,-33.203125,-78.61328125,-85.9375
3,1734037511146.3438,-25.87890625,-30.76171875,-77.1484375,-18.06640625
4,1734037511150.25,-5.37109375,-36.62109375,-69.82421875,38.0859375
5,1734037511154.1562,-14.6484375,-46.875,-69.82421875,-1.953125
6,1734037511158.0625,-40.0390625,-47.8515625,-68.84765625,-65.4296875
7,1734037511161.9688,-29.78515625,-38.0859375,-65.4296875,-27.34375
8,1734037511165.875,9.765625,-28.80859375,-69.82421875,53.7109375
9,1734037511169.7812,-6.34765625,-22.4609375,-68.84765625,38.0859375
10,1734037511173.6875,-53.7109375,-23.4375,-68.359375,-57.6171875
11,1734037511177.5938,-38.0859375,-25.87890625,-65.4296875,-44.43359375
0,1734037511181.5,-5.37109375,-25.390625,-61.5234375,37.59765625
1,1734037511185.4062,-7.32421875,-25.87890625,-61.5234375,22.4609375
2,1734037511189.3125,-39.55078125,-35.64453125,-62.98828125,-47.36328125
3,1734037511193.2188,-54.19921875,-38.57421875,-66.40625,-62.98828125
4,1734037511197.125,-21.484375,-35.15625,-63.4765625,9.765625
5,1734037511201.0312,-10.7421875,-46.38671875,-62.01171875,43.9453125
6,1734037511204.9375,-31.73828125,-52.734375,-62.01171875,-15.13671875
7,1734037511208.8438,-38.57421875,-57.6171875,-61.03515625,-57.12890625
8,1734037511212.75,-14.16015625,-49.8046875,-62.5,4.39453125
9,1734037511216.6562,-5.859375,-37.59765625,-58.59375,42.96875
10,1734037511220.5625,-21.97265625,-45.8984375,-57.12890625,6.34765625
11,1734037511224.4688,-55.17578125,-56.15234375,-65.91796875,-65.4296875
0,1734037511228.375,-40.0390625,-54.19921875,-68.359375,-34.66796875
1,1734037511232.2812,-5.37109375,-41.50390625,-71.77734375,26.3671875
2,1734037511236.1875,-8.30078125,-40.0390625,-79.1015625,17.08984375
3,1734037511240.0938,-33.69140625,-43.45703125,-78.125,-37.59765625
4,1734037511244,-38.0859375,-41.9921875,-78.125,-50.29296875
5,1734037511247.9062,-5.37109375,-47.8515625,-83.984375,23.4375
6,1734037511251.8125,0,-50.78125,-87.40234375,44.43359375
7,1734037511255.7188,-25.87890625,-57.6171875,-93.75,-16.11328125
8,1734037511259.625,-49.31640625,-51.7578125,-97.65625,-56.640625
9,1734037511263.5312,-21.484375,-31.73828125,-94.7265625,0
10,1734037511267.4375,11.23046875,-29.78515625,-99.609375,51.7578125
11,1734037511271.3438,-11.23046875,-36.62109375,-100.5859375,7.32421875
0,1734037511275.25,-45.8984375,-39.0625,-99.12109375,-63.4765625
1,1734037511279.1562,-27.34375,-38.57421875,-100.5859375,-18.5546875
2,1734037511283.0625,-0.48828125,-43.45703125,-100.09765625,57.12890625
3,1734037511286.9688,-12.20703125,-42.48046875,-102.5390625,24.4140625
4,1734037511290.875,-44.43359375,-40.0390625,-101.07421875,-57.6171875
5,1734037511294.7812,-32.71484375,-38.57421875,-96.19140625,-27.83203125
6,1734037511298.6875,8.7890625,-46.875,-97.65625,51.7578125
7,1734037511302.5938,7.32421875,-46.38671875,-98.14453125,41.9921875
8,1734037511306.5,-24.90234375,-28.80859375,-91.796875,-41.015625
9,1734037511310.4062,-24.4140625,-29.78515625,-89.35546875,-46.875
10,1734037511314.3125,0,-29.296875,-89.84375,27.34375
11,1734037511318.2188,-0.9765625,-25.390625,-85.44921875,47.8515625
0,1734037511322.125,-21.484375,-28.3203125,-85.44921875,-15.13671875
1,1734037511326.0312,-33.203125,-38.57421875,-89.35546875,-60.546875
2,1734037511329.9375,-9.27734375,-40.0390625,-90.33203125,6.8359375
3,1734037511333.8438,12.20703125,-25.87890625,-82.51953125,51.7578125
4,1734037511337.75,4.8828125,-28.3203125,-76.171875,12.6953125
5,1734037511341.6562,-23.92578125,-37.109375,-81.54296875,-45.8984375
6,1734037511345.5625,-13.671875,-35.64453125,-81.54296875,2.44140625
7,1734037511349.4688,10.25390625,-30.76171875,-78.125,51.26953125
