index,unixTimestamp,TP9,AF7,AF8,TP10
0,1734117564491.5,0,0,0,0
1,1734117564495.4062,-0.48828125,0,-0.48828125,-0.48828125
2,1734117564499.3125,-0.48828125,-1.46484375,-0.9765625,-0.48828125
3,1734117564503.2188,0.9765625,1.953125,0.48828125,-0.48828125
4,1734117564507.125,-7.32421875,-11.71875,-5.859375,-0.48828125
5,1734117564511.0312,-7.8125,-32.71484375,-23.4375,-8.30078125
6,1734117564514.9375,-7.8125,-29.78515625,-23.4375,-16.11328125
7,1734117564518.8438,-19.53125,-30.76171875,-25.390625,-19.04296875
8,1734117564522.75,-20.99609375,-35.15625,-34.66796875,-26.3671875
9,1734117564526.6562,-27.34375,-39.55078125,-31.25,-25.390625
10,1734117564530.5625,-26.85546875,-40.52734375,-25.87890625,-21.97265625
11,1734117564534.4688,-23.92578125,-39.0625,-24.4140625,-33.69140625
0,1734117564538.375,-32.71484375,-40.52734375,-27.83203125,-40.52734375
1,1734117564542.2812,-30.2734375,-37.109375,-29.296875,-31.25
2,1734117564546.1875,-23.4375,-34.66796875,-27.34375,-20.99609375
3,1734117564550.0938,-14.6484375,-36.62109375,-22.4609375,-9.765625
4,1734117564554,-7.8125,-35.64453125,-24.90234375,-7.8125
5,1734117564557.9062,-7.8125,-32.2265625,-26.85546875,-0.9765625
6,1734117564561.8125,0.48828125,-26.85546875,-20.5078125,7.8125
7,1734117564565.7188,2.9296875,-26.85546875,-20.01953125,4.39453125
8,1734117564569.625,-4.8828125,-32.2265625,-23.4375,-0.48828125
9,1734117564573.5312,-5.859375,-30.2734375,-26.85546875,-9.765625
10,1734117564577.4375,-2.9296875,-27.83203125,-28.3203125,-8.7890625
11,1734117564581.3438,-14.16015625,-28.80859375,-33.69140625,-5.859375
0,1734117564585.25,-21.484375,-27.83203125,-29.78515625,-15.625
1,1734117564589.1562,-16.11328125,-27.34375,-23.92578125,-25.390625
2,1734117564593.0625,-11.23046875,-24.90234375,-22.4609375,-26.85546875
3,1734117564596.9688,-8.30078125,-21.484375,-22.94921875,-26.85546875
4,1734117564600.875,-5.859375,-19.53125,-12.6953125,-19.04296875
5,1734117564604.7812,-8.30078125,-23.92578125,-12.20703125,-12.20703125
6,1734117564608.6875,-24.4140625,-26.3671875,-25.390625,-20.01953125
7,1734117564612.5938,-33.69140625,-28.80859375,-29.78515625,-38.0859375
8,1734117564616.5,-31.25,-32.71484375,-32.2265625,-45.8984375
9,1734117564620.4062,-41.9921875,-31.73828125,-29.78515625,-38.57421875
10,1734117564624.3125,-50.78125,-31.73828125,-23.4375,-35.64453125
11,1734117564628.2188,-54.19921875,-36.62109375,-25.87890625,-52.24609375
0,1734117564632.125,-47.36328125,-35.15625,-36.62109375,-57.12890625
1,1734117564636.0312,-43.45703125,-35.64453125,-35.15625,-45.41015625
2,1734117564639.9375,-42.48046875,-35.15625,-23.92578125,-37.59765625
3,1734117564643.8438,-35.15625,-32.71484375,-22.4609375,-30.2734375
4,1734117564647.75,-25.87890625,-32.71484375,-26.85546875,-19.53125
5,1734117564651.6562,-28.80859375,-36.1328125,-26.85546875,-18.06640625
6,1734117564655.5625,-33.69140625,-38.57421875,-24.4140625,-15.625
7,1734117564659.4688,-26.3671875,-34.66796875,-21.97265625,-18.06640625
8,1734117564663.375,-24.90234375,-30.76171875,-17.578125,-12.6953125
9,1734117564667.2812,-25.390625,-32.2265625,-21.484375,-4.39453125
10,1734117564671.1875,-21.484375,-34.1796875,-25.390625,-13.18359375
11,1734117564675.0938,-22.4609375,-35.15625,-24.90234375,-12.6953125
0,1734117564679,-21.484375,-33.69140625,-26.3671875,-5.37109375
1,1734117564682.9062,-6.8359375,-26.3671875,-21.484375,6.34765625
2,1734117564686.8125,-11.23046875,-26.3671875,-20.5078125,9.27734375
3,1734117564690.7188,-21.97265625,-28.80859375,-19.53125,-0.9765625
4,1734117564694.625,-19.04296875,-22.94921875,-13.671875,0.48828125
5,1734117564698.5312,-16.6015625,-26.85546875,-18.06640625,-6.8359375
6,1734117564702.4375,-15.13671875,-31.73828125,-20.5078125,-9.765625
7,1734117564706.3438,-23.4375,-29.78515625,-20.5078125,-5.859375
8,1734117564710.25,-35.64453125,-33.69140625,-20.01953125,-10.25390625
9,1734117564714.1562,-37.59765625,-31.25,-18.5546875,-8.30078125
10,1734117564718.0625,-29.296875,-28.80859375,-25.87890625,-16.6015625
11,1734117564721.9688,-27.34375,-28.80859375,-31.73828125,-20.5078125
0,1734117564725.875,-24.90234375,-33.69140625,-35.64453125,-19.04296875
1,1734117564729.7812,-23.92578125,-37.59765625,-35.15625,-22.94921875
2,1734117564733.6875,-25.87890625,-35.64453125,-21.97265625,-13.671875
3,1734117564737.5938,-21.97265625,-34.1796875,-16.11328125,-5.859375
4,1734117564741.5,-14.16015625,-26.3671875,-17.08984375,0.9765625
5,1734117564745.4062,-16.11328125,-25.390625,-20.01953125,-7.8125
6,1734117564749.3125,-17.08984375,-27.83203125,-21.484375,-15.625
7,1734117564753.2188,-17.578125,-30.76171875,-33.203125,-11.71875
8,1734117564757.125,-23.92578125,-37.109375,-38.0859375,-8.7890625
9,1734117564761.0312,-21.97265625,-32.71484375,-33.203125,-15.13671875
10,1734117564764.9375,-16.11328125,-31.25,-33.69140625,-12.6953125
11,1734117564768.8438,-14.16015625,-32.71484375,-28.80859375,-8.30078125
0,1734117564772.75,-14.6484375,-29.78515625,-31.25,-15.625
1,1734117564776.6562,-9.765625,-31.25,-36.1328125,-15.625
2,1734117564780.5625,-15.13671875,-31.25,-31.73828125,-10.25390625
3,1734117564784.4688,-24.90234375,-20.5078125,-28.3203125,-2.9296875
4,1734117564788.375,-24.4140625,-21.484375,-33.69140625,-8.30078125
5,1734117564792.2812,-30.2734375,-29.78515625,-32.71484375,-19.53125
6,1734117564796.1875,-24.90234375,-31.25,-24.4140625,-21.97265625
7,1734117564800.0938,-17.08984375,-30.2734375,-19.04296875,-23.4375
8,1734117564804,-16.6015625,-29.78515625,-21.484375,-18.06640625
9,1734117564807.9062,-20.99609375,-33.69140625,-26.85546875,-12.6953125
10,1734117564811.8125,-14.6484375,-31.73828125,-24.4140625,-14.16015625
11,1734117564815.7188,-19.53125,-30.76171875,-16.6015625,-18.5546875
0,1734117564819.625,-30.2734375,-36.62109375,-23.92578125,-23.4375
1,1734117564823.5312,-36.1328125,-32.2265625,-26.85546875,-31.73828125
2,1734117564827.4375,-45.41015625,-30.76171875,-25.390625,-34.66796875
3,1734117564831.3438,-50.29296875,-34.66796875,-30.2734375,-36.1328125
4,1734117564835.25,-43.9453125,-28.3203125,-30.76171875,-20.01953125
5,1734117564839.1562,-37.109375,-27.34375,-33.203125,-20.01953125
6,1734117564843.0625,-37.109375,-31.73828125,-33.203125,-33.203125
7,1734117564846.9688,-37.109375,-32.2265625,-34.66796875,-27.34375
8,1734117564850.875,-41.50390625,-33.203125,-38.0859375,-34.1796875
9,1734117564854.7812,-44.43359375,-29.296875,-30.2734375,-41.015625
10,1734117564858.6875,-37.109375,-29.78515625,-23.92578125,-40.52734375
11,1734117564862.5938,-36.1328125,-30.76171875,-20.5078125,-33.69140625
0,1734117564866.5,-29.78515625,-27.83203125,-20.01953125,-28.80859375
1,1734117564870.4062,-25.390625,-25.390625,-21.97265625,-39.55078125
2,1734117564874.3125,-39.0625,-20.99609375,-20.99609375,-42.48046875
3,1734117564878.2188,-39.55078125,-21.484375,-26.3671875,-38.0859375
4,1734117564882.125,-57.6171875,-21.484375,-34.1796875,-52.24609375
5,1734117564886.0312,-70.80078125,-20.5078125,-31.25,-62.98828125
6,1734117564889.9375,-60.546875,-24.4140625,-23.92578125,-55.17578125
7,1734117564893.8438,-66.89453125,-35.15625,-26.85546875,-55.17578125
8,1734117564897.75,-74.21875,-36.62109375,-29.78515625,-66.89453125
9,1734117564901.6562,-68.84765625,-27.83203125,-23.4375,-73.2421875
10,1734117564905.5625,-70.80078125,-24.4140625,-20.99609375,-70.3125
11,1734117564909.4688,-77.63671875,-24.4140625,-21.97265625,-75.1953125
0,1734117564913.375,-75.68359375,-27.83203125,-21.97265625,-78.61328125
1,1734117564917.2812,-85.44921875,-29.78515625,-21.484375,-78.125
2,1734117564921.1875,-93.26171875,-22.4609375,-21.97265625,-92.7734375
3,1734117564925.0938,-82.03125,-20.01953125,-32.2265625,-92.7734375
4,1734117564929,-89.84375,-26.3671875,-33.203125,-83.984375
5,1734117564932.9062,-102.05078125,-34.1796875,-29.296875,-90.8203125
6,1734117564936.8125,-98.14453125,-35.15625,-31.73828125,-83.0078125
7,1734117564940.7188,-92.7734375,-25.390625,-27.34375,-73.73046875
8,1734117564944.625,-88.8671875,-22.4609375,-26.3671875,-79.1015625
9,1734117564948.5312,-76.66015625,-23.4375,-31.25,-71.2890625
10,1734117564952.4375,-63.96484375,-23.4375,-28.3203125,-59.5703125
11,1734117564956.3438,-66.89453125,-25.87890625,-22.94921875,-57.6171875
0,1734117564960.25,-69.82421875,-24.4140625,-30.2734375,-54.6875
1,1734117564964.1562,-57.6171875,-20.01953125,-31.73828125,-57.12890625
2,1734117564968.0625,-48.828125,-20.01953125,-24.90234375,-56.15234375
3,1734117564971.9688,-47.8515625,-14.6484375,-29.78515625,-49.8046875
4,1734117564975.875,-54.19921875,-13.18359375,-29.296875,-48.33984375
5,1734117564979.7812,-57.6171875,-20.99609375,-21.97265625,-46.875
6,1734117564983.6875,-58.10546875,-26.3671875,-20.5078125,-39.55078125
7,1734117564987.5938,-56.640625,-24.90234375,-18.5546875,-34.66796875
8,1734117564991.5,-52.24609375,-20.99609375,-20.01953125,-41.9921875
9,1734117564995.4062,-47.8515625,-20.99609375,-24.90234375,-41.015625
10,1734117564999.3125,-41.50390625,-20.5078125,-28.3203125,-27.83203125
11,1734117565003.2188,-38.57421875,-22.94921875,-29.296875,-32.71484375
0,1734117565007.125,-39.55078125,-25.390625,-23.4375,-33.69140625
1,1734117565011.0312,-54.19921875,-33.203125,-21.97265625,-37.59765625
2,1734117565014.9375,-62.98828125,-40.0390625,-25.87890625,-48.33984375
3,1734117565018.8438,-57.12890625,-38.57421875,-30.76171875,-49.8046875
4,1734117565022.75,-57.6171875,-28.80859375,-32.71484375,-50.29296875
5,1734117565026.6562,-53.22265625,-24.90234375,-28.3203125,-42.96875
6,1734117565030.5625,-46.38671875,-35.15625,-22.4609375,-38.0859375
7,1734117565034.4688,-53.22265625,-32.2265625,-23.92578125,-34.66796875
8,1734117565038.375,-59.5703125,-23.92578125,-28.80859375,-38.0859375
9,1734117565042.2812,-52.24609375,-24.90234375,-25.87890625,-29.78515625
10,1734117565046.1875,-61.5234375,-25.87890625,-28.80859375,-25.390625
11,1734117565050.0938,-60.546875,-25.87890625,-27.83203125,-42.48046875
0,1734117565054,-49.8046875,-28.80859375,-24.90234375,-34.66796875
1,1734117565057.9062,-41.9921875,-32.2265625,-23.4375,-18.5546875
2,1734117565061.8125,-32.2265625,-28.80859375,-21.484375,-21.97265625
3,1734117565065.7188,-23.4375,-20.5078125,-30.2734375,-24.90234375
4,1734117565069.625,-15.625,-24.90234375,-33.203125,-21.97265625
5,1734117565073.5312,-15.625,-29.78515625,-24.4140625,-23.92578125
6,1734117565077.4375,-16.6015625,-31.73828125,-22.94921875,-26.85546875
7,1734117565081.3438,-16.11328125,-33.69140625,-22.94921875,-22.94921875
8,1734117565085.25,-13.18359375,-28.3203125,-24.4140625,-17.08984375
9,1734117565089.1562,-14.6484375,-25.87890625,-25.390625,-1.46484375
10,1734117565093.0625,-19.04296875,-26.3671875,-21.484375,-8.30078125
11,1734117565096.9688,-33.203125,-28.3203125,-23.4375,-28.80859375
0,1734117565100.875,-39.55078125,-36.62109375,-27.83203125,-30.2734375
1,1734117565104.7812,-30.2734375,-38.0859375,-26.85546875,-26.85546875
2,1734117565108.6875,-35.15625,-32.2265625,-27.83203125,-28.3203125
3,1734117565112.5938,-26.3671875,-26.3671875,-26.85546875,-30.76171875
4,1734117565116.5,-26.85546875,-18.06640625,-29.296875,-25.390625
5,1734117565120.4062,-40.52734375,-18.5546875,-30.2734375,-24.90234375
6,1734117565124.3125,-48.33984375,-28.80859375,-19.04296875,-31.25
7,1734117565128.2188,-62.01171875,-42.96875,-19.53125,-46.38671875
8,1734117565132.125,-62.01171875,-39.55078125,-23.92578125,-40.52734375
9,1734117565136.0312,-53.22265625,-28.3203125,-29.296875,-41.015625
10,1734117565139.9375,-58.10546875,-29.296875,-33.203125,-50.29296875
11,1734117565143.8438,-62.01171875,-36.62109375,-22.94921875,-40.0390625
0,1734117565147.75,-57.12890625,-33.69140625,-15.13671875,-38.0859375
1,1734117565151.6562,-53.7109375,-25.87890625,-14.16015625,-39.0625
2,1734117565155.5625,-56.640625,-22.94921875,-22.4609375,-38.57421875
3,1734117565159.4688,-50.29296875,-25.87890625,-25.390625,-26.85546875
4,1734117565163.375,-36.62109375,-28.3203125,-20.99609375,-15.625
5,1734117565167.2812,-34.66796875,-26.85546875,-21.484375,-8.30078125
6,1734117565171.1875,-34.1796875,-24.4140625,-21.484375,-7.32421875
7,1734117565175.0938,-24.4140625,-27.34375,-22.4609375,-6.8359375
8,1734117565179,-11.23046875,-30.2734375,-18.5546875,-3.41796875
9,1734117565182.9062,-15.13671875,-29.296875,-15.13671875,-7.8125
10,1734117565186.8125,-19.04296875,-33.69140625,-12.20703125,-6.8359375
11,1734117565190.7188,-20.5078125,-34.1796875,-10.7421875,-14.6484375
0,1734117565194.625,-24.4140625,-33.203125,-18.06640625,-23.92578125
1,1734117565198.5312,-30.76171875,-30.76171875,-23.92578125,-28.3203125
2,1734117565202.4375,-38.0859375,-30.76171875,-25.87890625,-33.203125
3,1734117565206.3438,-55.17578125,-37.59765625,-29.78515625,-45.8984375
4,1734117565210.25,-68.359375,-35.15625,-23.4375,-58.10546875
5,1734117565214.1562,-46.38671875,-23.4375,-14.16015625,-53.22265625
6,1734117565218.0625,-46.38671875,-24.4140625,-21.484375,-62.5
7,1734117565221.9688,-62.98828125,-30.2734375,-22.94921875,-66.89453125
8,1734117565225.875,-68.84765625,-28.3203125,-17.08984375,-70.3125
9,1734117565229.7812,-76.171875,-34.66796875,-18.06640625,-88.8671875
10,1734117565233.6875,-70.3125,-32.2265625,-19.53125,-91.30859375
11,1734117565237.5938,-69.82421875,-29.78515625,-20.5078125,-98.14453125
0,1734117565241.5,-70.80078125,-34.1796875,-19.04296875,-99.12109375
1,1734117565245.4062,-80.078125,-36.1328125,-25.390625,-90.33203125
2,1734117565249.3125,-93.75,-43.45703125,-22.4609375,-84.9609375
3,1734117565253.2188,-96.6796875,-42.48046875,-5.859375,-72.75390625
4,1734117565257.125,-99.609375,-39.0625,-3.90625,-67.87109375
5,1734117565261.0312,-118.1640625,-41.50390625,-14.6484375,-74.70703125
6,1734117565264.9375,-121.09375,-41.9921875,-9.27734375,-68.359375
7,1734117565268.8438,-92.28515625,-39.0625,0,-50.29296875
8,1734117565272.75,-73.73046875,-34.66796875,-7.32421875,-52.24609375
9,1734117565276.6562,-78.61328125,-30.76171875,-10.25390625,-64.94140625
10,1734117565280.5625,-80.078125,-31.73828125,-1.46484375,-50.78125
11,1734117565284.4688,-82.51953125,-39.0625,-3.41796875,-48.828125
0,1734117565288.375,-80.56640625,-39.55078125,-10.7421875,-57.6171875
1,1734117565292.2812,-74.21875,-37.59765625,-10.7421875,-61.03515625
2,1734117565296.1875,-65.4296875,-36.1328125,-3.41796875,-61.5234375
3,1734117565300.0938,-52.24609375,-31.73828125,-0.9765625,-53.22265625
4,1734117565304,-71.2890625,-33.203125,-9.765625,-59.08203125
5,1734117565307.9062,-74.70703125,-35.15625,-12.20703125,-53.22265625
6,1734117565311.8125,-65.91796875,-37.109375,-6.8359375,-43.9453125
7,1734117565315.7188,-74.70703125,-32.71484375,-8.7890625,-55.17578125
8,1734117565319.625,-76.171875,-35.15625,-18.06640625,-78.125
9,1734117565323.5312,-68.84765625,-37.109375,-21.484375,-76.66015625
10,1734117565327.4375,-67.3828125,-30.2734375,-20.5078125,-76.171875
11,1734117565331.3438,-65.91796875,-29.78515625,-17.578125,-81.54296875
0,1734117565335.25,-56.640625,-30.2734375,-17.578125,-77.1484375
1,1734117565339.1562,-48.33984375,-30.2734375,-13.671875,-71.2890625
2,1734117565343.0625,-44.43359375,-36.62109375,-9.765625,-68.359375
3,1734117565346.9688,-49.8046875,-40.52734375,-17.578125,-72.265625
4,1734117565350.875,-60.05859375,-34.1796875,-19.04296875,-70.80078125
5,1734117565354.7812,-65.91796875,-34.1796875,-14.16015625,-61.03515625
6,1734117565358.6875,-56.15234375,-33.69140625,-10.7421875,-60.546875
7,1734117565362.5938,-43.9453125,-27.83203125,-4.39453125,-60.05859375
8,1734117565366.5,-36.62109375,-37.109375,-8.7890625,-50.29296875
9,1734117565370.4062,-35.15625,-44.43359375,-16.11328125,-37.59765625
10,1734117565374.3125,-38.57421875,-39.55078125,-12.6953125,-15.13671875
11,1734117565378.2188,-40.0390625,-40.52734375,-14.6484375,-12.20703125
0,1734117565382.125,-34.1796875,-38.57421875,-25.87890625,-11.71875
1,1734117565386.0312,-15.13671875,-30.76171875,-24.90234375,-2.44140625
2,1734117565389.9375,-4.8828125,-27.83203125,-14.16015625,3.90625
3,1734117565393.8438,-17.08984375,-25.87890625,-20.5078125,8.30078125
4,1734117565397.75,-19.04296875,-30.2734375,-21.484375,11.23046875
5,1734117565401.6562,-11.71875,-35.64453125,-9.27734375,16.11328125
6,1734117565405.5625,-8.30078125,-40.0390625,-13.18359375,12.6953125
7,1734117565409.4688,-9.765625,-45.8984375,-20.99609375,14.6484375
8,1734117565413.375,-4.39453125,-40.0390625,-20.01953125,24.90234375
9,1734117565417.2812,11.23046875,-31.25,-15.13671875,35.64453125
10,1734117565421.1875,14.6484375,-27.83203125,-21.97265625,31.25
11,1734117565425.0938,7.8125,-28.3203125,-22.94921875,28.3203125
0,1734117565429,10.25390625,-25.87890625,-15.13671875,30.2734375
1,1734117565432.9062,13.671875,-20.5078125,-11.23046875,30.2734375
2,1734117565436.8125,11.23046875,-25.390625,-7.32421875,25.390625
3,1734117565440.7188,8.7890625,-31.73828125,-16.11328125,21.97265625
4,1734117565444.625,11.23046875,-32.71484375,-22.4609375,28.3203125
5,1734117565448.5312,15.625,-30.76171875,-19.04296875,27.83203125
6,1734117565452.4375,18.5546875,-27.83203125,-18.5546875,28.80859375
7,1734117565456.3438,15.625,-34.66796875,-20.99609375,34.1796875
8,1734117565460.25,17.578125,-38.0859375,-23.4375,42.96875
9,1734117565464.1562,23.92578125,-35.64453125,-20.01953125,56.640625
10,1734117565468.0625,18.5546875,-34.1796875,-20.01953125,50.78125
11,1734117565471.9688,17.08984375,-33.69140625,-25.390625,41.015625
0,1734117565475.875,12.20703125,-32.71484375,-28.3203125,32.2265625
1,1734117565479.7812,8.30078125,-27.83203125,-28.3203125,29.296875
2,1734117565483.6875,14.6484375,-28.80859375,-30.76171875,36.1328125
3,1734117565487.5938,19.04296875,-30.2734375,-23.92578125,39.0625
4,1734117565491.5,17.578125,-31.73828125,-12.20703125,42.48046875
5,1734117565495.4062,21.97265625,-27.83203125,-15.625,41.015625
6,1734117565499.3125,19.04296875,-24.90234375,-23.92578125,38.57421875
7,1734117565503.2188,14.6484375,-26.3671875,-21.484375,38.0859375
8,1734117565507.125,22.4609375,-29.78515625,-18.5546875,42.48046875
9,1734117565511.0312,20.5078125,-31.73828125,-24.90234375,38.0859375
10,1734117565514.9375,17.08984375,-29.78515625,-27.34375,30.2734375
11,1734117565518.8438,18.5546875,-36.1328125,-24.4140625,30.2734375
0,1734117565522.75,18.06640625,-39.55078125,-24.4140625,28.3203125
1,1734117565526.6562,17.08984375,-37.109375,-23.4375,27.83203125
2,1734117565530.5625,20.5078125,-33.203125,-27.83203125,25.87890625
3,1734117565534.4688,13.671875,-33.69140625,-28.3203125,20.01953125
4,1734117565538.375,5.859375,-34.66796875,-25.87890625,19.04296875
5,1734117565542.2812,4.39453125,-35.15625,-33.69140625,5.859375
6,1734117565546.1875,1.46484375,-35.64453125,-39.55078125,-2.44140625
7,1734117565550.0938,6.8359375,-33.203125,-34.1796875,16.6015625
8,1734117565554,12.20703125,-30.2734375,-27.34375,35.15625
9,1734117565557.9062,9.27734375,-28.3203125,-27.34375,28.3203125
10,1734117565561.8125,16.11328125,-28.80859375,-24.90234375,23.92578125
11,1734117565565.7188,19.04296875,-33.69140625,-25.87890625,20.5078125
0,1734117565569.625,0.48828125,-35.64453125,-31.73828125,12.6953125
1,1734117565573.5312,-8.30078125,-33.203125,-39.55078125,8.30078125
2,1734117565577.4375,-5.859375,-29.296875,-35.15625,9.27734375
3,1734117565581.3438,-11.71875,-34.1796875,-27.83203125,3.90625
4,1734117565585.25,-19.53125,-38.57421875,-36.1328125,-5.859375
5,1734117565589.1562,-20.99609375,-37.59765625,-41.9921875,-3.41796875
6,1734117565593.0625,-20.5078125,-38.0859375,-38.57421875,1.953125
7,1734117565596.9688,-17.08984375,-41.015625,-31.25,10.7421875
8,1734117565600.875,-11.71875,-38.57421875,-30.2734375,14.16015625
9,1734117565604.7812,-11.23046875,-38.0859375,-34.1796875,14.16015625
10,1734117565608.6875,-9.765625,-41.015625,-34.66796875,16.11328125
11,1734117565612.5938,6.8359375,-40.0390625,-36.1328125,17.578125
0,1734117565616.5,7.8125,-35.15625,-33.203125,23.92578125
1,1734117565620.4062,3.41796875,-32.71484375,-30.2734375,14.6484375
2,1734117565624.3125,15.625,-33.203125,-30.76171875,15.625
3,1734117565628.2188,21.97265625,-26.85546875,-32.71484375,17.578125
4,1734117565632.125,25.390625,-22.94921875,-32.71484375,19.04296875
5,1734117565636.0312,27.34375,-24.90234375,-37.109375,11.71875
6,1734117565639.9375,30.76171875,-26.3671875,-31.73828125,18.06640625
7,1734117565643.8438,27.83203125,-28.80859375,-20.99609375,24.4140625
8,1734117565647.75,25.390625,-31.25,-21.484375,15.625
9,1734117565651.6562,33.69140625,-28.80859375,-26.85546875,20.99609375
10,1734117565655.5625,39.55078125,-25.390625,-29.296875,28.80859375
11,1734117565659.4688,29.296875,-20.5078125,-32.71484375,23.4375
0,1734117565663.375,18.06640625,-23.4375,-35.64453125,6.8359375
1,1734117565667.2812,20.5078125,-25.390625,-33.203125,13.18359375
2,1734117565671.1875,17.08984375,-24.4140625,-27.83203125,16.6015625
3,1734117565675.0938,19.53125,-28.80859375,-26.3671875,6.8359375
4,1734117565679,11.23046875,-28.80859375,-30.2734375,5.859375
5,1734117565682.9062,-0.48828125,-27.34375,-36.1328125,8.30078125
6,1734117565686.8125,14.16015625,-26.85546875,-39.0625,9.27734375
7,1734117565690.7188,6.8359375,-31.25,-42.96875,6.8359375
8,1734117565694.625,-6.34765625,-31.73828125,-40.0390625,4.8828125
9,1734117565698.5312,-8.30078125,-22.4609375,-27.83203125,3.41796875
10,1734117565702.4375,-17.578125,-23.92578125,-26.85546875,-2.9296875
11,1734117565706.3438,-16.11328125,-28.80859375,-39.0625,-6.34765625
0,1734117565710.25,-13.18359375,-33.203125,-42.96875,-14.6484375
1,1734117565714.1562,-12.6953125,-29.296875,-36.1328125,-18.5546875
2,1734117565718.0625,-10.7421875,-27.83203125,-38.57421875,-9.27734375
3,1734117565721.9688,-11.71875,-33.203125,-48.33984375,-5.859375
4,1734117565725.875,-0.9765625,-30.2734375,-41.9921875,0.9765625
5,1734117565729.7812,12.20703125,-23.4375,-25.87890625,17.578125
6,1734117565733.6875,7.8125,-24.4140625,-21.97265625,23.4375
7,1734117565737.5938,7.32421875,-23.92578125,-29.296875,17.08984375
8,1734117565741.5,13.18359375,-21.97265625,-36.1328125,8.30078125
9,1734117565745.4062,17.08984375,-20.99609375,-31.73828125,9.765625
10,1734117565749.3125,9.765625,-22.94921875,-28.3203125,8.30078125
11,1734117565753.2188,-1.953125,-30.2734375,-38.57421875,-5.37109375
0,1734117565757.125,3.41796875,-30.76171875,-40.52734375,-1.953125
1,1734117565761.0312,11.23046875,-25.390625,-33.69140625,7.8125
2,1734117565764.9375,18.06640625,-28.3203125,-36.1328125,12.20703125
3,1734117565768.8438,17.578125,-32.2265625,-38.57421875,14.16015625
4,1734117565772.75,7.8125,-30.2734375,-40.0390625,11.23046875
5,1734117565776.6562,2.44140625,-27.34375,-41.50390625,9.27734375
6,1734117565780.5625,2.9296875,-26.3671875,-33.69140625,11.71875
7,1734117565784.4688,0,-23.92578125,-33.69140625,13.671875
8,1734117565788.375,-4.39453125,-22.4609375,-33.69140625,17.08984375
9,1734117565792.2812,0.9765625,-27.83203125,-27.34375,18.06640625
10,1734117565796.1875,9.765625,-28.80859375,-23.4375,8.7890625
11,1734117565800.0938,-2.44140625,-27.83203125,-20.01953125,7.8125
0,1734117565804,-2.44140625,-24.90234375,-24.90234375,7.8125
1,1734117565807.9062,-4.39453125,-21.97265625,-28.80859375,-4.39453125
2,1734117565811.8125,-12.6953125,-22.4609375,-24.90234375,-5.859375
3,1734117565815.7188,-15.625,-24.90234375,-22.94921875,-2.9296875
4,1734117565819.625,-16.11328125,-35.64453125,-28.3203125,-9.765625
5,1734117565823.5312,-11.71875,-37.109375,-36.62109375,-6.8359375
6,1734117565827.4375,-23.92578125,-38.57421875,-42.48046875,-11.23046875
7,1734117565831.3438,-27.34375,-38.57421875,-39.55078125,-13.671875
8,1734117565835.25,-19.04296875,-33.69140625,-32.71484375,1.953125
9,1734117565839.1562,-3.90625,-34.1796875,-30.2734375,14.16015625
10,1734117565843.0625,0.48828125,-34.1796875,-35.15625,9.765625
11,1734117565846.9688,3.41796875,-30.76171875,-26.3671875,10.25390625
0,1734117565850.875,4.8828125,-26.3671875,-25.87890625,10.25390625
1,1734117565854.7812,-6.8359375,-28.3203125,-30.76171875,9.765625
2,1734117565858.6875,-7.8125,-28.80859375,-21.97265625,4.39453125
3,1734117565862.5938,-8.30078125,-34.66796875,-23.4375,-9.27734375
4,1734117565866.5,-9.765625,-41.015625,-25.390625,-6.34765625
5,1734117565870.4062,-13.18359375,-35.64453125,-27.34375,-6.8359375
6,1734117565874.3125,-7.32421875,-30.2734375,-31.73828125,-15.13671875
7,1734117565878.2188,9.765625,-29.296875,-19.53125,-6.8359375
8,1734117565882.125,-7.8125,-27.34375,-12.6953125,5.37109375
9,1734117565886.0312,-23.92578125,-29.296875,-25.87890625,-11.71875
10,1734117565889.9375,-15.625,-31.73828125,-30.76171875,-25.87890625
11,1734117565893.8438,-17.578125,-33.69140625,-28.80859375,-18.06640625
0,1734117565897.75,-19.04296875,-33.69140625,-27.34375,-12.20703125
1,1734117565901.6562,-18.06640625,-29.296875,-23.92578125,-5.859375
2,1734117565905.5625,-18.06640625,-27.83203125,-28.3203125,-4.8828125
3,1734117565909.4688,-18.06640625,-34.1796875,-30.76171875,-10.7421875
4,1734117565913.375,-21.484375,-32.2265625,-27.83203125,-11.23046875
5,1734117565917.2812,-28.3203125,-28.80859375,-32.71484375,-15.13671875
6,1734117565921.1875,-16.6015625,-26.3671875,-34.66796875,-12.6953125
7,1734117565925.0938,-6.8359375,-25.390625,-37.109375,-9.765625
8,1734117565929,-17.578125,-25.87890625,-36.1328125,2.9296875
9,1734117565932.9062,-17.578125,-27.83203125,-34.66796875,3.90625
10,1734117565936.8125,-10.25390625,-29.296875,-30.76171875,-7.32421875
11,1734117565940.7188,-12.20703125,-29.296875,-26.85546875,-15.13671875
0,1734117565944.625,-20.5078125,-28.3203125,-28.3203125,-16.6015625
1,1734117565948.5312,-23.92578125,-28.80859375,-34.1796875,-17.578125
2,1734117565952.4375,-25.390625,-35.64453125,-41.015625,-25.87890625
3,1734117565956.3438,-25.390625,-36.62109375,-36.1328125,-28.3203125
4,1734117565960.25,-25.87890625,-30.2734375,-30.76171875,-24.4140625
5,1734117565964.1562,-32.2265625,-34.66796875,-31.73828125,-19.04296875
6,1734117565968.0625,-33.203125,-37.109375,-28.80859375,-18.5546875
7,1734117565971.9688,-23.4375,-29.78515625,-23.4375,-7.32421875
8,1734117565975.875,-25.390625,-32.71484375,-24.4140625,-4.8828125
9,1734117565979.7812,-34.66796875,-40.52734375,-34.66796875,-20.5078125
10,1734117565983.6875,-30.2734375,-36.1328125,-30.76171875,-26.3671875
11,1734117565987.5938,-23.92578125,-30.76171875,-25.87890625,-24.90234375
0,1734117565991.5,-29.78515625,-31.25,-27.34375,-28.80859375
1,1734117565995.4062,-30.2734375,-37.59765625,-26.3671875,-28.3203125
2,1734117565999.3125,-23.92578125,-36.62109375,-30.76171875,-23.4375
3,1734117566003.2188,-25.390625,-32.71484375,-33.69140625,-24.4140625
4,1734117566007.125,-30.2734375,-36.1328125,-34.66796875,-28.80859375
5,1734117566011.0312,-28.3203125,-34.1796875,-33.203125,-28.3203125
6,1734117566014.9375,-20.99609375,-35.15625,-27.34375,-26.85546875
7,1734117566018.8438,-24.90234375,-41.9921875,-21.97265625,-28.3203125
8,1734117566022.75,-31.25,-39.0625,-24.4140625,-31.25
9,1734117566026.6562,-15.625,-29.78515625,-28.80859375,-22.94921875
10,1734117566030.5625,-11.23046875,-25.87890625,-23.92578125,-2.44140625
11,1734117566034.4688,-13.18359375,-29.78515625,-26.3671875,-5.859375
0,1734117566038.375,-8.30078125,-30.2734375,-32.71484375,-23.92578125
1,1734117566042.2812,-18.5546875,-28.3203125,-26.85546875,-17.08984375
2,1734117566046.1875,-22.4609375,-25.87890625,-22.94921875,-11.71875
3,1734117566050.0938,-23.4375,-22.94921875,-25.87890625,-18.06640625
4,1734117566054,-25.87890625,-23.92578125,-28.80859375,-16.11328125
5,1734117566057.9062,-28.3203125,-27.83203125,-28.80859375,-17.578125
6,1734117566061.8125,-24.4140625,-30.2734375,-28.3203125,-21.484375
7,1734117566065.7188,-23.4375,-31.73828125,-38.0859375,-17.08984375
8,1734117566069.625,-14.6484375,-32.2265625,-39.55078125,-21.484375
9,1734117566073.5312,1.46484375,-25.87890625,-28.80859375,-17.578125
10,1734117566077.4375,-4.39453125,-22.4609375,-30.2734375,-11.71875
11,1734117566081.3438,-8.30078125,-20.99609375,-33.69140625,-10.7421875
0,1734117566085.25,-3.41796875,-23.4375,-28.3203125,-4.8828125
1,1734117566089.1562,-1.46484375,-25.390625,-21.97265625,0
2,1734117566093.0625,-2.9296875,-22.94921875,-23.4375,4.8828125
3,1734117566096.9688,-19.53125,-25.390625,-26.3671875,6.8359375
4,1734117566100.875,-33.203125,-33.203125,-18.5546875,2.9296875
5,1734117566104.7812,-46.875,-34.66796875,-11.23046875,11.23046875
6,1734117566108.6875,-47.36328125,-29.296875,-12.20703125,6.8359375
7,1734117566112.5938,-32.71484375,-24.90234375,-20.01953125,-10.7421875
8,1734117566116.5,-32.71484375,-24.4140625,-29.78515625,-15.13671875
9,1734117566120.4062,-34.1796875,-27.34375,-30.2734375,-15.625
10,1734117566124.3125,-33.203125,-31.25,-22.4609375,-10.25390625
11,1734117566128.2188,-34.1796875,-34.1796875,-29.296875,-8.30078125
0,1734117566132.125,-26.3671875,-34.66796875,-30.2734375,-14.6484375
1,1734117566136.0312,-33.203125,-37.109375,-19.53125,-26.85546875
2,1734117566139.9375,-39.55078125,-36.62109375,-26.3671875,-31.25
3,1734117566143.8438,-25.87890625,-30.76171875,-38.57421875,-26.85546875
4,1734117566147.75,-20.5078125,-27.83203125,-32.71484375,-24.4140625
5,1734117566151.6562,-29.78515625,-29.78515625,-25.390625,-20.99609375
6,1734117566155.5625,-35.15625,-29.78515625,-20.99609375,-20.99609375
7,1734117566159.4688,-37.109375,-31.25,-13.18359375,-24.4140625
8,1734117566163.375,-35.15625,-34.66796875,-12.6953125,-33.69140625
9,1734117566167.2812,-26.3671875,-33.203125,-19.53125,-35.64453125
10,1734117566171.1875,-26.85546875,-31.25,-23.4375,-25.87890625
11,1734117566175.0938,-29.78515625,-30.76171875,-22.4609375,-22.94921875
0,1734117566179,-20.5078125,-30.2734375,-19.53125,-24.4140625
1,1734117566182.9062,-19.53125,-27.34375,-17.578125,-37.59765625
2,1734117566186.8125,-26.85546875,-28.3203125,-21.484375,-38.57421875
3,1734117566190.7188,-21.97265625,-28.3203125,-24.4140625,-35.64453125
4,1734117566194.625,-16.6015625,-25.87890625,-23.92578125,-34.1796875
5,1734117566198.5312,-18.06640625,-29.78515625,-20.01953125,-29.78515625
6,1734117566202.4375,-20.5078125,-34.66796875,-21.484375,-35.64453125
7,1734117566206.3438,-17.08984375,-26.85546875,-26.85546875,-25.390625
8,1734117566210.25,-9.27734375,-19.53125,-24.90234375,-4.39453125
9,1734117566214.1562,-9.765625,-24.4140625,-15.625,0.9765625
10,1734117566218.0625,-13.18359375,-31.73828125,-15.625,-11.23046875
11,1734117566221.9688,-18.06640625,-28.3203125,-18.06640625,-17.578125
0,1734117566225.875,-13.671875,-23.92578125,-13.18359375,-10.7421875
1,1734117566229.7812,-29.78515625,-29.296875,-13.671875,-19.04296875
2,1734117566233.6875,-34.66796875,-29.78515625,-13.671875,-25.87890625
3,1734117566237.5938,-26.3671875,-27.83203125,-16.6015625,-24.90234375
4,1734117566241.5,-35.64453125,-33.203125,-27.83203125,-23.4375
5,1734117566245.4062,-31.73828125,-39.55078125,-30.76171875,-19.04296875
6,1734117566249.3125,-26.3671875,-38.57421875,-24.4140625,-21.484375
7,1734117566253.2188,-26.85546875,-34.66796875,-24.4140625,-33.203125
8,1734117566257.125,-17.578125,-31.25,-30.2734375,-20.5078125
9,1734117566261.0312,-18.5546875,-37.109375,-28.3203125,-18.06640625
10,1734117566264.9375,-20.01953125,-38.0859375,-27.83203125,-32.2265625
11,1734117566268.8438,-23.4375,-32.2265625,-28.3203125,-25.87890625
0,1734117566272.75,-32.2265625,-31.73828125,-21.97265625,-19.04296875
1,1734117566276.6562,-26.85546875,-34.66796875,-23.4375,-16.6015625
2,1734117566280.5625,-13.18359375,-29.296875,-29.296875,-23.4375
3,1734117566284.4688,-4.39453125,-20.01953125,-28.80859375,-24.4140625
4,1734117566288.375,-7.8125,-22.94921875,-27.34375,-17.08984375
5,1734117566292.2812,-10.25390625,-26.85546875,-24.90234375,-16.6015625
6,1734117566296.1875,-16.6015625,-29.78515625,-21.97265625,-18.06640625
7,1734117566300.0938,-6.8359375,-37.109375,-22.94921875,-13.671875
8,1734117566304,-4.39453125,-33.69140625,-26.85546875,-2.44140625
9,1734117566307.9062,-10.25390625,-22.94921875,-27.83203125,-3.41796875
10,1734117566311.8125,-15.625,-26.3671875,-30.76171875,-15.625
11,1734117566315.7188,-24.4140625,-34.1796875,-31.73828125,-12.6953125
0,1734117566319.625,-24.90234375,-37.109375,-30.76171875,-2.44140625
1,1734117566323.5312,-33.203125,-37.59765625,-30.2734375,-4.8828125
2,1734117566327.4375,-29.78515625,-36.1328125,-20.01953125,4.8828125
3,1734117566331.3438,-31.73828125,-37.109375,-26.85546875,-3.41796875
4,1734117566335.25,-41.50390625,-32.2265625,-35.64453125,-20.99609375
5,1734117566339.1562,-36.1328125,-26.85546875,-32.2265625,-20.01953125
6,1734117566343.0625,-36.62109375,-28.3203125,-28.80859375,-13.18359375
7,1734117566346.9688,-45.41015625,-28.3203125,-27.34375,-12.20703125
8,1734117566350.875,-42.48046875,-30.2734375,-28.3203125,-22.4609375
9,1734117566354.7812,-38.0859375,-29.296875,-26.85546875,-23.4375
10,1734117566358.6875,-41.50390625,-22.94921875,-28.80859375,-23.4375
11,1734117566362.5938,-40.0390625,-30.2734375,-34.1796875,-17.08984375
0,1734117566366.5,-26.85546875,-33.203125,-35.64453125,-7.8125
1,1734117566370.4062,-9.27734375,-25.390625,-29.78515625,-7.32421875
2,1734117566374.3125,-16.6015625,-26.85546875,-20.99609375,0.9765625
3,1734117566378.2188,-19.04296875,-29.296875,-23.92578125,0
4,1734117566382.125,-15.625,-28.80859375,-33.203125,-2.9296875
5,1734117566386.0312,-16.11328125,-27.34375,-26.85546875,2.44140625
6,1734117566389.9375,-12.6953125,-27.34375,-21.484375,6.8359375
7,1734117566393.8438,-16.11328125,-27.83203125,-21.484375,13.18359375
8,1734117566397.75,-20.01953125,-30.2734375,-23.92578125,4.8828125
9,1734117566401.6562,-21.484375,-35.15625,-29.78515625,-3.90625
10,1734117566405.5625,-13.18359375,-37.59765625,-25.87890625,-6.8359375
11,1734117566409.4688,-21.484375,-37.59765625,-23.92578125,-17.578125
0,1734117566413.375,-23.92578125,-33.203125,-19.53125,-23.4375
1,1734117566417.2812,-19.04296875,-28.80859375,-15.13671875,-17.578125
2,1734117566421.1875,-26.85546875,-29.78515625,-31.25,-12.6953125
3,1734117566425.0938,-26.85546875,-30.76171875,-34.1796875,-21.97265625
4,1734117566429,-27.83203125,-29.78515625,-21.97265625,-31.73828125
5,1734117566432.9062,-31.25,-29.78515625,-23.92578125,-33.69140625
6,1734117566436.8125,-33.203125,-33.69140625,-23.92578125,-26.3671875
7,1734117566440.7188,-28.3203125,-32.71484375,-24.4140625,-17.578125
8,1734117566444.625,-25.87890625,-30.76171875,-25.390625,-19.04296875
9,1734117566448.5312,-23.4375,-37.109375,-23.92578125,-12.20703125
10,1734117566452.4375,-16.11328125,-32.2265625,-26.3671875,-7.8125
11,1734117566456.3438,-16.11328125,-22.94921875,-23.4375,-13.671875
0,1734117566460.25,-16.6015625,-28.80859375,-31.73828125,-21.484375
1,1734117566464.1562,-17.08984375,-34.1796875,-42.48046875,-24.90234375
2,1734117566468.0625,-16.6015625,-29.78515625,-32.71484375,-19.53125
3,1734117566471.9688,-20.5078125,-27.34375,-29.296875,-21.484375
4,1734117566475.875,-15.625,-37.59765625,-30.76171875,-30.76171875
5,1734117566479.7812,-10.25390625,-38.0859375,-32.2265625,-16.6015625
6,1734117566483.6875,-9.765625,-29.78515625,-36.62109375,-3.90625
7,1734117566487.5938,-5.37109375,-29.78515625,-26.85546875,-0.48828125
8,1734117566491.5,-7.8125,-36.1328125,-19.04296875,-5.37109375
9,1734117566495.4062,-10.7421875,-40.0390625,-21.484375,-8.7890625
10,1734117566499.3125,-14.16015625,-34.66796875,-32.2265625,-10.25390625
11,1734117566503.2188,-14.6484375,-34.1796875,-37.59765625,-14.16015625
0,1734117566507.125,-6.34765625,-32.2265625,-27.83203125,-10.25390625
1,1734117566511.0312,-13.18359375,-31.25,-16.11328125,-16.11328125
2,1734117566514.9375,-26.85546875,-34.1796875,-14.6484375,-25.87890625
3,1734117566518.8438,-28.3203125,-33.69140625,-22.94921875,-32.71484375
4,1734117566522.75,-25.390625,-33.203125,-20.5078125,-29.78515625
5,1734117566526.6562,-25.87890625,-33.69140625,-18.06640625,-26.85546875
6,1734117566530.5625,-29.78515625,-39.0625,-25.87890625,-28.80859375
7,1734117566534.4688,-32.71484375,-39.55078125,-20.99609375,-28.80859375
8,1734117566538.375,-28.80859375,-34.66796875,-21.484375,-27.34375
9,1734117566542.2812,-27.83203125,-33.203125,-25.390625,-23.4375
10,1734117566546.1875,-34.66796875,-31.73828125,-24.90234375,-32.2265625
11,1734117566550.0938,-27.34375,-28.80859375,-28.3203125,-37.59765625
0,1734117566554,-11.23046875,-27.34375,-24.90234375,-16.6015625
1,1734117566557.9062,-20.01953125,-30.2734375,-24.90234375,-6.34765625
2,1734117566561.8125,-21.484375,-27.34375,-29.78515625,-21.484375
3,1734117566565.7188,-15.13671875,-26.85546875,-29.296875,-21.97265625
4,1734117566569.625,-19.53125,-28.3203125,-24.90234375,-18.06640625
5,1734117566573.5312,-11.71875,-27.83203125,-16.6015625,-12.6953125
6,1734117566577.4375,-14.6484375,-31.25,-20.01953125,-10.7421875
7,1734117566581.3438,-18.06640625,-32.2265625,-28.80859375,-18.5546875
8,1734117566585.25,-6.8359375,-34.1796875,-34.66796875,-14.16015625
9,1734117566589.1562,0.48828125,-33.69140625,-38.57421875,-0.48828125
10,1734117566593.0625,-11.71875,-33.69140625,-33.203125,-3.41796875
11,1734117566596.9688,-13.18359375,-38.57421875,-23.92578125,1.46484375
0,1734117566600.875,-11.71875,-30.2734375,-17.08984375,12.20703125
1,1734117566604.7812,-17.578125,-27.83203125,-19.53125,2.9296875
2,1734117566608.6875,-10.25390625,-32.71484375,-22.4609375,6.34765625
3,1734117566612.5938,-15.625,-30.2734375,-23.4375,5.37109375
4,1734117566616.5,-27.34375,-38.0859375,-36.1328125,-3.90625
5,1734117566620.4062,-28.80859375,-41.9921875,-39.55078125,-2.44140625
6,1734117566624.3125,-25.390625,-36.1328125,-36.62109375,-18.06640625
7,1734117566628.2188,-21.97265625,-33.203125,-34.1796875,-21.484375
8,1734117566632.125,-33.203125,-35.15625,-22.94921875,-11.23046875
9,1734117566636.0312,-41.015625,-36.1328125,-25.390625,-25.87890625
10,1734117566639.9375,-41.50390625,-36.1328125,-29.296875,-27.34375
11,1734117566643.8438,-34.1796875,-38.0859375,-29.296875,-6.34765625
0,1734117566647.75,-27.34375,-35.64453125,-35.64453125,-4.39453125
1,1734117566651.6562,-29.78515625,-32.2265625,-37.109375,-16.6015625
2,1734117566655.5625,-26.85546875,-29.296875,-33.203125,-28.3203125
3,1734117566659.4688,-25.390625,-29.296875,-28.3203125,-25.390625
4,1734117566663.375,-20.99609375,-30.2734375,-32.2265625,-11.71875
5,1734117566667.2812,-7.8125,-28.3203125,-35.64453125,-12.20703125
6,1734117566671.1875,-8.7890625,-26.85546875,-29.78515625,-17.08984375
7,1734117566675.0938,-11.71875,-23.4375,-24.4140625,-7.8125
8,1734117566679,-9.27734375,-18.5546875,-26.85546875,2.44140625
9,1734117566682.9062,-7.32421875,-21.97265625,-30.76171875,-11.23046875
10,1734117566686.8125,-9.27734375,-31.25,-29.78515625,-15.625
11,1734117566690.7188,-9.27734375,-33.203125,-30.76171875,-6.8359375
0,1734117566694.625,-9.765625,-33.69140625,-26.3671875,-1.953125
1,1734117566698.5312,-9.27734375,-34.66796875,-25.87890625,-0.48828125
2,1734117566702.4375,-9.765625,-28.3203125,-24.4140625,-0.9765625
3,1734117566706.3438,-16.6015625,-31.73828125,-26.3671875,-6.34765625
4,1734117566710.25,-11.23046875,-38.57421875,-25.87890625,-11.23046875
5,1734117566714.1562,-18.06640625,-40.52734375,-25.87890625,-22.4609375
6,1734117566718.0625,-23.4375,-38.0859375,-31.25,-32.2265625
7,1734117566721.9688,-17.08984375,-37.109375,-33.69140625,-30.76171875
8,1734117566725.875,-18.5546875,-39.0625,-30.2734375,-31.25
9,1734117566729.7812,-10.25390625,-33.69140625,-24.4140625,-18.06640625
10,1734117566733.6875,-4.8828125,-35.64453125,-27.34375,-4.8828125
11,1734117566737.5938,-13.671875,-39.0625,-27.34375,-9.27734375
0,1734117566741.5,-19.04296875,-37.109375,-24.4140625,-20.99609375
1,1734117566745.4062,-19.04296875,-38.0859375,-25.87890625,-28.3203125
2,1734117566749.3125,-27.83203125,-39.0625,-25.390625,-25.87890625
3,1734117566753.2188,-33.69140625,-36.62109375,-25.87890625,-24.4140625
4,1734117566757.125,-31.25,-32.2265625,-28.80859375,-29.296875
5,1734117566761.0312,-27.34375,-28.3203125,-29.78515625,-24.4140625
6,1734117566764.9375,-18.5546875,-28.3203125,-25.390625,-11.23046875
7,1734117566768.8438,-7.8125,-30.2734375,-25.390625,-7.8125
8,1734117566772.75,-10.25390625,-24.90234375,-24.90234375,-12.20703125
9,1734117566776.6562,-14.6484375,-25.390625,-24.90234375,-17.08984375
10,1734117566780.5625,-18.5546875,-30.76171875,-25.87890625,-12.20703125
11,1734117566784.4688,-11.23046875,-28.80859375,-26.3671875,-3.90625
0,1734117566788.375,-13.671875,-26.3671875,-28.80859375,-4.8828125
1,1734117566792.2812,-24.4140625,-26.3671875,-27.34375,-10.25390625
2,1734117566796.1875,-11.71875,-23.92578125,-27.83203125,-12.20703125
3,1734117566800.0938,-15.625,-23.92578125,-25.390625,-7.32421875
4,1734117566804,-23.4375,-29.78515625,-20.5078125,-9.765625
5,1734117566807.9062,-20.01953125,-29.78515625,-25.87890625,-7.8125
6,1734117566811.8125,-23.4375,-25.390625,-27.83203125,-8.7890625
7,1734117566815.7188,-22.4609375,-27.83203125,-24.90234375,-14.16015625
8,1734117566819.625,-18.06640625,-31.73828125,-26.85546875,-12.6953125
9,1734117566823.5312,-16.6015625,-27.34375,-32.2265625,-9.27734375
10,1734117566827.4375,-7.8125,-28.3203125,-34.1796875,-9.765625
11,1734117566831.3438,0,-35.15625,-31.73828125,-9.27734375
0,1734117566835.25,0,-37.109375,-31.25,-5.859375
1,1734117566839.1562,-17.08984375,-39.55078125,-31.73828125,-13.671875
2,1734117566843.0625,-31.25,-34.66796875,-32.71484375,-9.765625
3,1734117566846.9688,-33.203125,-29.296875,-28.3203125,-4.8828125
4,1734117566850.875,-26.3671875,-32.2265625,-21.97265625,-6.34765625
5,1734117566854.7812,-18.5546875,-31.73828125,-26.3671875,-2.9296875
6,1734117566858.6875,-18.06640625,-32.71484375,-32.2265625,3.90625
7,1734117566862.5938,-14.16015625,-36.1328125,-28.80859375,0
8,1734117566866.5,-16.11328125,-30.76171875,-28.80859375,-18.5546875
9,1734117566870.4062,-19.04296875,-32.2265625,-33.69140625,-19.04296875
10,1734117566874.3125,-16.11328125,-33.69140625,-32.71484375,-13.18359375
11,1734117566878.2188,-13.671875,-28.3203125,-33.69140625,-17.578125
0,1734117566882.125,-17.578125,-31.25,-35.15625,-18.06640625
1,1734117566886.0312,-15.13671875,-33.203125,-29.296875,-17.08984375
2,1734117566889.9375,-14.16015625,-32.2265625,-22.4609375,-18.5546875
3,1734117566893.8438,-13.18359375,-35.15625,-24.90234375,-23.92578125
4,1734117566897.75,-16.11328125,-36.62109375,-30.2734375,-21.484375
5,1734117566901.6562,-18.5546875,-33.203125,-41.50390625,-19.04296875
6,1734117566905.5625,-11.23046875,-25.87890625,-45.41015625,-18.06640625
7,1734117566909.4688,-4.8828125,-25.87890625,-34.66796875,-26.3671875
8,1734117566913.375,0,-32.2265625,-30.76171875,-28.80859375
9,1734117566917.2812,-6.34765625,-33.69140625,-27.34375,-23.92578125
10,1734117566921.1875,-16.6015625,-36.1328125,-25.87890625,-30.76171875
11,1734117566925.0938,-9.27734375,-32.2265625,-31.25,-29.78515625
0,1734117566929,-2.44140625,-34.1796875,-37.109375,-21.97265625
1,1734117566932.9062,-19.53125,-43.9453125,-35.64453125,-5.37109375
2,1734117566936.8125,-31.73828125,-41.9921875,-31.25,2.9296875
3,1734117566940.7188,-44.921875,-38.57421875,-32.2265625,-21.97265625
4,1734117566944.625,-42.48046875,-32.2265625,-27.83203125,-27.34375
5,1734117566948.5312,-29.78515625,-30.2734375,-24.4140625,-10.7421875
6,1734117566952.4375,-40.0390625,-30.2734375,-26.3671875,-15.625
7,1734117566956.3438,-50.78125,-32.71484375,-27.34375,-23.4375
8,1734117566960.25,-48.33984375,-38.0859375,-28.80859375,-19.04296875
9,1734117566964.1562,-40.0390625,-29.296875,-26.3671875,-13.18359375
10,1734117566968.0625,-40.52734375,-21.484375,-24.4140625,-25.87890625
11,1734117566971.9688,-40.52734375,-34.1796875,-20.99609375,-32.2265625
0,1734117566975.875,-43.9453125,-38.0859375,-15.625,-28.80859375
1,1734117566979.7812,-40.52734375,-30.2734375,-15.13671875,-25.390625
2,1734117566983.6875,-22.4609375,-29.78515625,-15.625,-22.94921875
3,1734117566987.5938,-30.2734375,-31.73828125,-17.578125,-28.80859375
4,1734117566991.5,-42.48046875,-30.2734375,-22.94921875,-41.50390625
5,1734117566995.4062,-30.76171875,-31.25,-26.3671875,-41.015625
6,1734117566999.3125,-36.1328125,-33.69140625,-28.80859375,-38.57421875
7,1734117567003.2188,-48.33984375,-39.55078125,-26.85546875,-44.921875
8,1734117567007.125,-41.015625,-40.0390625,-22.4609375,-30.2734375
9,1734117567011.0312,-41.50390625,-36.1328125,-29.78515625,-32.2265625
10,1734117567014.9375,-45.8984375,-33.203125,-34.1796875,-56.640625
11,1734117567018.8438,-36.62109375,-31.73828125,-30.2734375,-46.875
0,1734117567022.75,-41.015625,-34.66796875,-30.2734375,-47.8515625
1,1734117567026.6562,-48.33984375,-32.2265625,-25.390625,-60.05859375
2,1734117567030.5625,-55.6640625,-29.296875,-15.13671875,-47.36328125
3,1734117567034.4688,-62.98828125,-37.59765625,-17.08984375,-38.0859375
4,1734117567038.375,-67.3828125,-34.66796875,-29.296875,-44.921875
5,1734117567042.2812,-60.05859375,-27.34375,-33.203125,-54.19921875
6,1734117567046.1875,-50.29296875,-33.203125,-22.94921875,-55.6640625
7,1734117567050.0938,-53.7109375,-32.71484375,-15.625,-48.828125
8,1734117567054,-61.03515625,-31.25,-20.99609375,-38.0859375
9,1734117567057.9062,-59.5703125,-36.1328125,-27.83203125,-41.50390625
10,1734117567061.8125,-56.15234375,-38.0859375,-17.578125,-48.828125
11,1734117567065.7188,-59.08203125,-32.2265625,-10.7421875,-56.15234375
0,1734117567069.625,-61.5234375,-32.71484375,-19.53125,-60.05859375
1,1734117567073.5312,-62.01171875,-33.203125,-18.06640625,-63.4765625
2,1734117567077.4375,-58.10546875,-30.2734375,-11.23046875,-61.5234375
3,1734117567081.3438,-47.8515625,-31.73828125,-14.16015625,-59.5703125
4,1734117567085.25,-52.734375,-31.73828125,-12.6953125,-53.7109375
5,1734117567089.1562,-56.15234375,-27.34375,-14.16015625,-46.38671875
6,1734117567093.0625,-40.52734375,-27.83203125,-18.5546875,-44.43359375
7,1734117567096.9688,-37.59765625,-33.203125,-14.16015625,-28.3203125
8,1734117567100.875,-52.24609375,-31.25,-12.20703125,-34.66796875
9,1734117567104.7812,-54.6875,-33.203125,-15.13671875,-54.19921875
10,1734117567108.6875,-46.38671875,-32.2265625,-13.671875,-45.8984375
11,1734117567112.5938,-43.45703125,-26.3671875,-18.5546875,-41.50390625
0,1734117567116.5,-37.109375,-26.85546875,-19.53125,-40.0390625
1,1734117567120.4062,-41.50390625,-31.73828125,-24.90234375,-45.8984375
2,1734117567124.3125,-52.734375,-36.62109375,-26.3671875,-50.29296875
3,1734117567128.2188,-52.734375,-31.25,-17.578125,-48.828125
4,1734117567132.125,-48.33984375,-33.203125,-21.97265625,-54.19921875
5,1734117567136.0312,-44.921875,-41.015625,-23.4375,-48.828125
6,1734117567139.9375,-45.8984375,-36.62109375,-19.53125,-36.62109375
7,1734117567143.8438,-54.19921875,-33.203125,-22.4609375,-31.25
8,1734117567147.75,-58.59375,-30.2734375,-21.97265625,-46.38671875
9,1734117567151.6562,-50.78125,-28.80859375,-20.99609375,-56.640625
10,1734117567155.5625,-44.921875,-26.85546875,-25.87890625,-45.41015625
11,1734117567159.4688,-40.52734375,-19.04296875,-20.99609375,-39.0625
0,1734117567163.375,-38.0859375,-22.94921875,-15.13671875,-49.8046875
1,1734117567167.2812,-39.55078125,-33.69140625,-22.4609375,-48.33984375
2,1734117567171.1875,-41.50390625,-27.34375,-30.76171875,-46.38671875
3,1734117567175.0938,-34.66796875,-15.625,-27.34375,-52.734375
4,1734117567179,-23.4375,-14.16015625,-22.4609375,-34.1796875
5,1734117567182.9062,-40.52734375,-25.390625,-25.390625,-22.94921875
6,1734117567186.8125,-48.33984375,-30.2734375,-26.3671875,-26.3671875
7,1734117567190.7188,-42.96875,-27.83203125,-23.4375,-27.34375
8,1734117567194.625,-36.62109375,-23.4375,-27.34375,-25.390625
9,1734117567198.5312,-30.76171875,-16.11328125,-22.94921875,-20.5078125
10,1734117567202.4375,-36.62109375,-27.34375,-18.06640625,-21.484375
11,1734117567206.3438,-42.48046875,-38.0859375,-21.484375,-12.6953125
0,1734117567210.25,-34.66796875,-33.69140625,-27.34375,-13.671875
1,1734117567214.1562,-23.92578125,-26.85546875,-30.76171875,-20.99609375
2,1734117567218.0625,-29.78515625,-23.4375,-24.90234375,-21.484375
3,1734117567221.9688,-32.2265625,-22.94921875,-20.01953125,-27.34375
4,1734117567225.875,-24.90234375,-20.99609375,-20.5078125,-16.11328125
5,1734117567229.7812,-23.92578125,-25.390625,-13.18359375,-12.20703125
6,1734117567233.6875,-24.4140625,-24.90234375,-8.7890625,-11.23046875
7,1734117567237.5938,-20.01953125,-17.08984375,-13.671875,-12.20703125
8,1734117567241.5,-19.53125,-18.5546875,-20.5078125,-23.92578125
9,1734117567245.4062,-20.01953125,-20.99609375,-18.5546875,-19.53125
10,1734117567249.3125,-23.92578125,-23.4375,-19.04296875,-22.4609375
11,1734117567253.2188,-33.203125,-29.78515625,-26.85546875,-28.3203125
0,1734117567257.125,-34.1796875,-33.69140625,-23.4375,-16.6015625
1,1734117567261.0312,-29.296875,-34.66796875,-24.90234375,-21.97265625
2,1734117567264.9375,-26.85546875,-30.76171875,-27.83203125,-30.76171875
3,1734117567268.8438,-31.73828125,-29.78515625,-25.87890625,-21.97265625
4,1734117567272.75,-28.80859375,-36.1328125,-20.99609375,-18.5546875
5,1734117567276.6562,-30.76171875,-43.45703125,-22.94921875,-19.04296875
6,1734117567280.5625,-36.1328125,-42.48046875,-22.4609375,-11.23046875
7,1734117567284.4688,-31.73828125,-40.0390625,-20.99609375,-14.6484375
8,1734117567288.375,-33.203125,-40.0390625,-26.3671875,-19.04296875
9,1734117567292.2812,-25.390625,-32.71484375,-28.80859375,-8.7890625
10,1734117567296.1875,-22.94921875,-29.78515625,-36.62109375,-13.18359375
11,1734117567300.0938,-29.78515625,-31.73828125,-33.69140625,-20.99609375
0,1734117567304,-32.2265625,-33.69140625,-23.92578125,-16.11328125
1,1734117567307.9062,-27.34375,-33.203125,-24.90234375,-15.13671875
2,1734117567311.8125,-20.01953125,-27.83203125,-16.11328125,-8.30078125
3,1734117567315.7188,-22.94921875,-25.390625,-14.6484375,-4.8828125
4,1734117567319.625,-12.6953125,-29.78515625,-20.5078125,-6.8359375
5,1734117567323.5312,-20.5078125,-34.1796875,-14.16015625,-11.71875
6,1734117567327.4375,-30.2734375,-34.66796875,-18.5546875,-11.71875
7,1734117567331.3438,-20.99609375,-35.15625,-20.01953125,-6.8359375
8,1734117567335.25,-15.625,-39.55078125,-22.4609375,-1.46484375
9,1734117567339.1562,-13.18359375,-41.015625,-22.94921875,-0.48828125
10,1734117567343.0625,-16.6015625,-36.62109375,-20.01953125,-6.8359375
11,1734117567346.9688,-20.99609375,-36.1328125,-22.4609375,-13.18359375
0,1734117567350.875,-26.3671875,-34.1796875,-20.99609375,-20.99609375
1,1734117567354.7812,-20.99609375,-32.2265625,-19.53125,-24.90234375
2,1734117567358.6875,-17.578125,-30.76171875,-30.76171875,-19.04296875
3,1734117567362.5938,-27.34375,-30.2734375,-31.25,-11.71875
4,1734117567366.5,-31.73828125,-33.203125,-22.94921875,-11.23046875
5,1734117567370.4062,-33.69140625,-38.57421875,-28.80859375,-14.16015625
6,1734117567374.3125,-35.15625,-35.15625,-30.76171875,-8.7890625
7,1734117567378.2188,-29.78515625,-34.66796875,-29.296875,-7.32421875
8,1734117567382.125,-28.80859375,-36.1328125,-24.4140625,-13.671875
9,1734117567386.0312,-38.57421875,-32.2265625,-29.296875,-12.6953125
10,1734117567389.9375,-33.203125,-33.203125,-42.96875,-18.06640625
11,1734117567393.8438,-28.80859375,-31.25,-33.69140625,-26.3671875
0,1734117567397.75,-41.50390625,-30.76171875,-24.4140625,-20.99609375
1,1734117567401.6562,-40.52734375,-30.2734375,-25.87890625,-17.08984375
2,1734117567405.5625,-26.85546875,-26.3671875,-28.80859375,-20.01953125
3,1734117567409.4688,-23.4375,-31.25,-34.66796875,-20.01953125
4,1734117567413.375,-28.80859375,-34.1796875,-34.1796875,-23.4375
5,1734117567417.2812,-29.78515625,-36.62109375,-28.80859375,-21.484375
6,1734117567421.1875,-29.78515625,-39.55078125,-28.3203125,-23.92578125
7,1734117567425.0938,-31.73828125,-37.109375,-36.62109375,-25.87890625
8,1734117567429,-22.94921875,-36.62109375,-41.015625,-14.16015625
9,1734117567432.9062,-10.7421875,-34.1796875,-33.69140625,-11.23046875
10,1734117567436.8125,-17.578125,-34.1796875,-22.94921875,-23.92578125
11,1734117567440.7188,-28.80859375,-32.2265625,-22.94921875,-29.78515625
0,1734117567444.625,-24.4140625,-26.3671875,-23.92578125,-18.06640625
1,1734117567448.5312,-22.4609375,-32.2265625,-25.87890625,-14.6484375
2,1734117567452.4375,-27.83203125,-43.45703125,-37.59765625,-23.4375
3,1734117567456.3438,-30.76171875,-36.1328125,-35.15625,-16.11328125
4,1734117567460.25,-23.92578125,-30.76171875,-23.4375,-18.5546875
5,1734117567464.1562,-9.27734375,-34.1796875,-21.97265625,-16.6015625
6,1734117567468.0625,-18.06640625,-34.1796875,-30.76171875,-13.18359375
7,1734117567471.9688,-22.94921875,-37.109375,-28.3203125,-26.3671875
8,1734117567475.875,-22.94921875,-37.59765625,-26.3671875,-21.484375
9,1734117567479.7812,-38.0859375,-39.0625,-27.83203125,-21.97265625
10,1734117567483.6875,-31.73828125,-33.69140625,-20.5078125,-22.94921875
11,1734117567487.5938,-23.4375,-30.76171875,-19.04296875,-18.06640625
0,1734117567491.5,-30.76171875,-37.109375,-19.53125,-23.92578125
1,1734117567495.4062,-31.73828125,-40.0390625,-22.94921875,-28.80859375
2,1734117567499.3125,-27.34375,-44.43359375,-22.4609375,-30.76171875
3,1734117567503.2188,-30.76171875,-41.9921875,-29.78515625,-31.73828125
4,1734117567507.125,-37.109375,-32.2265625,-35.15625,-30.2734375
5,1734117567511.0312,-33.69140625,-35.64453125,-24.90234375,-28.80859375
6,1734117567514.9375,-23.4375,-42.48046875,-23.92578125,-24.90234375
7,1734117567518.8438,-24.90234375,-37.59765625,-23.92578125,-17.578125
8,1734117567522.75,-31.25,-33.69140625,-26.3671875,-10.25390625
9,1734117567526.6562,-27.34375,-27.83203125,-27.83203125,-13.18359375
10,1734117567530.5625,-20.01953125,-27.83203125,-25.87890625,-7.32421875
11,1734117567534.4688,-20.99609375,-34.66796875,-26.3671875,3.41796875
0,1734117567538.375,-15.13671875,-29.78515625,-22.94921875,-6.8359375
1,1734117567542.2812,-5.859375,-26.85546875,-21.97265625,-7.32421875
2,1734117567546.1875,-8.30078125,-32.71484375,-23.92578125,-0.9765625
3,1734117567550.0938,-18.06640625,-38.0859375,-28.3203125,-8.30078125
4,1734117567554,-17.578125,-34.66796875,-36.1328125,-9.765625
5,1734117567557.9062,-25.390625,-32.2265625,-31.25,-10.25390625
6,1734117567561.8125,-23.4375,-29.78515625,-17.578125,-15.625
7,1734117567565.7188,-20.99609375,-28.80859375,-18.5546875,-23.4375
8,1734117567569.625,-25.390625,-26.85546875,-29.78515625,-29.78515625
9,1734117567573.5312,-17.08984375,-31.25,-36.1328125,-25.390625
10,1734117567577.4375,-15.13671875,-37.59765625,-30.76171875,-17.08984375
11,1734117567581.3438,-26.3671875,-33.203125,-25.390625,-18.5546875
0,1734117567585.25,-23.4375,-29.78515625,-32.71484375,-26.3671875
1,1734117567589.1562,-15.625,-28.80859375,-26.85546875,-23.92578125
2,1734117567593.0625,-24.4140625,-29.78515625,-21.97265625,-25.87890625
3,1734117567596.9688,-22.94921875,-28.80859375,-27.34375,-31.25
4,1734117567600.875,-18.06640625,-29.296875,-24.90234375,-29.296875
5,1734117567604.7812,-19.53125,-34.1796875,-23.92578125,-20.99609375
6,1734117567608.6875,-18.5546875,-31.73828125,-28.3203125,-12.6953125
7,1734117567612.5938,-17.08984375,-22.94921875,-34.66796875,-11.71875
8,1734117567616.5,-12.20703125,-20.5078125,-24.90234375,-17.578125
9,1734117567620.4062,-10.25390625,-25.390625,-12.6953125,-8.7890625
10,1734117567624.3125,-18.5546875,-30.2734375,-18.5546875,5.37109375
11,1734117567628.2188,-18.5546875,-33.69140625,-20.5078125,2.9296875
0,1734117567632.125,-18.06640625,-30.2734375,-19.04296875,-1.953125
1,1734117567636.0312,-21.484375,-28.3203125,-27.34375,-15.13671875
2,1734117567639.9375,-19.53125,-28.80859375,-26.3671875,-11.71875
3,1734117567643.8438,-19.04296875,-38.0859375,-25.87890625,-5.37109375
4,1734117567647.75,-20.01953125,-43.45703125,-28.80859375,-14.16015625
5,1734117567651.6562,-21.484375,-35.15625,-29.78515625,-13.671875
6,1734117567655.5625,-19.04296875,-32.71484375,-27.34375,-17.578125
7,1734117567659.4688,-14.16015625,-30.2734375,-23.4375,-19.04296875
8,1734117567663.375,-17.578125,-29.296875,-17.578125,-11.71875
9,1734117567667.2812,-20.5078125,-29.296875,-10.25390625,1.46484375
10,1734117567671.1875,-26.3671875,-27.34375,-16.6015625,-1.953125
11,1734117567675.0938,-24.90234375,-23.92578125,-25.390625,-14.16015625
0,1734117567679,-24.90234375,-23.92578125,-28.3203125,-15.625
1,1734117567682.9062,-24.90234375,-29.78515625,-27.34375,-15.625
2,1734117567686.8125,-31.73828125,-37.59765625,-31.73828125,-23.4375
3,1734117567690.7188,-37.109375,-40.52734375,-39.0625,-26.3671875
4,1734117567694.625,-29.296875,-29.296875,-32.2265625,-16.6015625
5,1734117567698.5312,-32.71484375,-27.34375,-21.484375,-24.90234375
6,1734117567702.4375,-34.66796875,-36.62109375,-25.87890625,-32.2265625
7,1734117567706.3438,-26.85546875,-43.9453125,-29.78515625,-30.76171875
8,1734117567710.25,-9.765625,-35.64453125,-20.99609375,-26.85546875
9,1734117567714.1562,-2.9296875,-26.85546875,-13.671875,-21.97265625
10,1734117567718.0625,-3.41796875,-27.34375,-20.99609375,-28.80859375
11,1734117567721.9688,5.37109375,-27.34375,-26.85546875,-28.3203125
0,1734117567725.875,9.27734375,-24.4140625,-20.99609375,-22.94921875
1,1734117567729.7812,17.578125,-19.53125,-21.97265625,-8.30078125
2,1734117567733.6875,7.8125,-23.92578125,-27.34375,-0.48828125
3,1734117567737.5938,-13.18359375,-27.34375,-26.85546875,-7.32421875
4,1734117567741.5,-16.11328125,-25.87890625,-29.78515625,1.953125
5,1734117567745.4062,-21.97265625,-29.78515625,-32.2265625,2.44140625
6,1734117567749.3125,-26.3671875,-33.69140625,-28.3203125,-3.90625
7,1734117567753.2188,-22.94921875,-30.76171875,-25.87890625,0.48828125
8,1734117567757.125,-16.11328125,-29.78515625,-23.92578125,2.9296875
9,1734117567761.0312,-19.53125,-34.1796875,-27.34375,-7.8125
10,1734117567764.9375,-17.578125,-30.76171875,-25.87890625,-23.4375
11,1734117567768.8438,-3.41796875,-25.390625,-26.3671875,-27.34375
0,1734117567772.75,-9.27734375,-26.3671875,-29.78515625,-27.83203125
1,1734117567776.6562,-19.53125,-22.94921875,-23.4375,-24.4140625
2,1734117567780.5625,-21.97265625,-22.4609375,-23.92578125,-20.5078125
3,1734117567784.4688,-18.5546875,-31.25,-28.80859375,-20.99609375
4,1734117567788.375,-18.5546875,-37.109375,-26.85546875,-12.20703125
5,1734117567792.2812,-24.90234375,-34.66796875,-29.78515625,-6.8359375
6,1734117567796.1875,-24.4140625,-35.64453125,-32.2265625,-0.48828125
7,1734117567800.0938,-23.4375,-34.66796875,-27.83203125,-0.48828125
8,1734117567804,-23.92578125,-33.203125,-24.4140625,-11.23046875
9,1734117567807.9062,-21.484375,-34.1796875,-23.4375,-25.390625
10,1734117567811.8125,-13.18359375,-32.71484375,-27.83203125,-24.4140625
11,1734117567815.7188,-18.5546875,-32.71484375,-28.3203125,-16.6015625
0,1734117567819.625,-23.4375,-30.76171875,-26.3671875,-23.92578125
1,1734117567823.5312,-22.4609375,-28.3203125,-25.87890625,-30.2734375
2,1734117567827.4375,-26.3671875,-33.69140625,-29.296875,-35.15625
3,1734117567831.3438,-20.5078125,-37.59765625,-33.69140625,-25.87890625
4,1734117567835.25,-15.13671875,-31.25,-38.57421875,-14.6484375
5,1734117567839.1562,-23.92578125,-31.73828125,-34.1796875,-24.4140625
6,1734117567843.0625,-16.6015625,-38.0859375,-31.25,-33.69140625
7,1734117567846.9688,-8.7890625,-42.96875,-31.73828125,-23.4375
8,1734117567850.875,-15.13671875,-36.1328125,-28.80859375,-21.97265625
9,1734117567854.7812,-21.484375,-28.3203125,-30.2734375,-29.296875
10,1734117567858.6875,-20.5078125,-34.66796875,-32.2265625,-26.3671875
11,1734117567862.5938,-14.6484375,-32.2265625,-28.3203125,-34.66796875
0,1734117567866.5,-21.484375,-32.2265625,-28.3203125,-36.1328125
1,1734117567870.4062,-24.4140625,-33.203125,-30.2734375,-30.76171875
2,1734117567874.3125,-17.08984375,-27.34375,-26.3671875,-28.3203125
3,1734117567878.2188,-16.6015625,-23.92578125,-34.1796875,-26.3671875
4,1734117567882.125,-23.4375,-23.4375,-40.0390625,-27.34375
5,1734117567886.0312,-17.578125,-19.04296875,-31.73828125,-28.80859375
6,1734117567889.9375,-14.6484375,-18.06640625,-20.99609375,-16.6015625
7,1734117567893.8438,-21.484375,-22.94921875,-18.5546875,-13.671875
8,1734117567897.75,-23.92578125,-25.87890625,-21.97265625,-14.16015625
9,1734117567901.6562,-23.4375,-24.90234375,-22.4609375,-6.34765625
10,1734117567905.5625,-20.5078125,-25.87890625,-29.296875,-11.71875
11,1734117567909.4688,-18.06640625,-26.85546875,-29.78515625,-12.6953125
0,1734117567913.375,-20.01953125,-32.71484375,-30.76171875,-18.5546875
1,1734117567917.2812,-16.11328125,-31.73828125,-29.296875,-24.4140625
2,1734117567921.1875,-9.765625,-28.3203125,-26.85546875,-21.484375
3,1734117567925.0938,-5.859375,-28.80859375,-21.97265625,-12.20703125
4,1734117567929,0.9765625,-30.76171875,-18.06640625,-9.765625
5,1734117567932.9062,-1.953125,-30.76171875,-23.4375,-16.6015625
6,1734117567936.8125,-4.39453125,-30.76171875,-25.87890625,-14.16015625
7,1734117567940.7188,2.9296875,-27.83203125,-33.69140625,-6.34765625
8,1734117567944.625,-0.48828125,-23.92578125,-35.15625,-15.625
9,1734117567948.5312,-6.8359375,-29.296875,-28.3203125,-14.6484375
10,1734117567952.4375,-7.8125,-35.15625,-28.3203125,-12.20703125
11,1734117567956.3438,-3.90625,-37.59765625,-32.2265625,-16.6015625
0,1734117567960.25,-10.7421875,-35.15625,-23.4375,-17.08984375
1,1734117567964.1562,-15.625,-30.76171875,-19.04296875,-14.16015625
2,1734117567968.0625,-17.578125,-27.83203125,-23.4375,-6.8359375
3,1734117567971.9688,-15.13671875,-27.34375,-25.390625,-8.7890625
4,1734117567975.875,-15.625,-27.34375,-26.3671875,-15.625
5,1734117567979.7812,-22.94921875,-29.78515625,-23.4375,-13.18359375
6,1734117567983.6875,-24.90234375,-32.2265625,-18.5546875,-1.953125
7,1734117567987.5938,-18.06640625,-29.296875,-21.484375,3.90625
8,1734117567991.5,-14.6484375,-23.4375,-28.3203125,-6.8359375
9,1734117567995.4062,-28.80859375,-23.4375,-28.80859375,-9.27734375
10,1734117567999.3125,-24.90234375,-27.34375,-21.97265625,1.953125
11,1734117568003.2188,-21.484375,-31.25,-25.390625,-9.765625
0,1734117568007.125,-31.73828125,-35.64453125,-33.203125,-13.671875
1,1734117568011.0312,-26.3671875,-27.83203125,-27.83203125,-6.34765625
2,1734117568014.9375,-22.4609375,-19.04296875,-20.01953125,0.48828125
3,1734117568018.8438,-28.80859375,-22.94921875,-25.390625,-3.90625
4,1734117568022.75,-9.765625,-25.390625,-35.15625,-14.16015625
5,1734117568026.6562,-2.9296875,-25.390625,-38.57421875,-14.6484375
6,1734117568030.5625,-16.11328125,-23.92578125,-28.3203125,-11.71875
7,1734117568034.4688,-14.16015625,-19.04296875,-20.01953125,-3.41796875
8,1734117568038.375,-15.13671875,-19.53125,-23.92578125,-0.9765625
9,1734117568042.2812,-6.8359375,-19.53125,-22.94921875,4.8828125
10,1734117568046.1875,-7.8125,-20.5078125,-23.92578125,4.39453125
11,1734117568050.0938,-11.23046875,-25.87890625,-30.76171875,-6.8359375
0,1734117568054,-9.765625,-28.80859375,-29.78515625,-11.23046875
1,1734117568057.9062,-20.01953125,-33.203125,-27.34375,-14.16015625
2,1734117568061.8125,-25.390625,-32.2265625,-31.25,-15.13671875
3,1734117568065.7188,-23.4375,-34.1796875,-34.1796875,-21.97265625
4,1734117568069.625,-23.4375,-36.1328125,-32.71484375,-25.87890625
5,1734117568073.5312,-19.04296875,-30.76171875,-37.109375,-16.6015625
6,1734117568077.4375,-11.23046875,-29.296875,-35.15625,-10.7421875
7,1734117568081.3438,-10.25390625,-32.2265625,-22.94921875,-13.671875
8,1734117568085.25,-14.6484375,-27.83203125,-16.11328125,-9.765625
9,1734117568089.1562,-17.578125,-24.90234375,-21.484375,-1.953125
10,1734117568093.0625,-19.04296875,-29.296875,-31.73828125,-12.6953125
11,1734117568096.9688,-11.71875,-30.76171875,-32.71484375,-17.08984375
0,1734117568100.875,-13.18359375,-32.2265625,-30.2734375,-12.20703125
1,1734117568104.7812,-15.13671875,-31.73828125,-33.69140625,-5.37109375
2,1734117568108.6875,-10.7421875,-28.80859375,-34.66796875,-5.859375
3,1734117568112.5938,-16.11328125,-33.69140625,-34.66796875,-9.27734375
4,1734117568116.5,-8.30078125,-32.71484375,-34.1796875,-7.8125
5,1734117568120.4062,-2.44140625,-30.76171875,-32.71484375,-3.90625
6,1734117568124.3125,-13.18359375,-32.2265625,-34.66796875,-5.859375
7,1734117568128.2188,-5.859375,-26.3671875,-31.73828125,-12.6953125
8,1734117568132.125,1.953125,-25.390625,-28.3203125,-4.8828125
9,1734117568136.0312,-10.25390625,-27.83203125,-32.2265625,-4.39453125
10,1734117568139.9375,-11.23046875,-25.87890625,-32.2265625,-15.13671875
11,1734117568143.8438,-6.34765625,-21.484375,-29.78515625,-8.7890625
0,1734117568147.75,-14.6484375,-21.97265625,-25.87890625,1.46484375
1,1734117568151.6562,-18.5546875,-24.4140625,-24.4140625,0.9765625
2,1734117568155.5625,-19.53125,-30.76171875,-27.34375,-15.13671875
3,1734117568159.4688,-23.92578125,-32.2265625,-21.484375,-14.16015625
4,1734117568163.375,-24.4140625,-24.4140625,-13.671875,-2.44140625
5,1734117568167.2812,-25.390625,-25.87890625,-24.4140625,3.41796875
6,1734117568171.1875,-20.5078125,-33.203125,-32.71484375,-2.9296875
7,1734117568175.0938,-9.27734375,-30.76171875,-24.90234375,-12.6953125
8,1734117568179,-15.625,-26.85546875,-18.5546875,-2.9296875
9,1734117568182.9062,-14.6484375,-24.90234375,-25.87890625,-7.8125
10,1734117568186.8125,-11.23046875,-20.01953125,-28.80859375,-15.625
11,1734117568190.7188,-7.8125,-18.06640625,-27.34375,-11.23046875
0,1734117568194.625,-5.859375,-26.85546875,-34.66796875,-20.5078125
1,1734117568198.5312,-10.7421875,-27.34375,-38.0859375,-27.34375
2,1734117568202.4375,-15.625,-20.99609375,-37.109375,-28.80859375
3,1734117568206.3438,-10.7421875,-19.53125,-37.109375,-25.87890625
4,1734117568210.25,-13.18359375,-23.4375,-39.55078125,-25.87890625
5,1734117568214.1562,-13.18359375,-26.3671875,-30.2734375,-22.94921875
6,1734117568218.0625,-6.34765625,-24.4140625,-23.92578125,-14.16015625
7,1734117568221.9688,-13.18359375,-24.4140625,-27.34375,-8.7890625
8,1734117568225.875,-12.6953125,-24.90234375,-31.73828125,-4.39453125
9,1734117568229.7812,-9.765625,-26.3671875,-30.76171875,-3.41796875
10,1734117568233.6875,-4.8828125,-32.2265625,-28.80859375,-7.32421875
11,1734117568237.5938,-1.953125,-32.2265625,-28.3203125,-8.30078125
0,1734117568241.5,-11.71875,-28.80859375,-32.2265625,-10.7421875
1,1734117568245.4062,-17.578125,-29.78515625,-33.203125,-12.6953125
2,1734117568249.3125,-19.53125,-29.78515625,-26.85546875,-12.20703125
3,1734117568253.2188,-24.90234375,-29.296875,-30.76171875,-9.765625
4,1734117568257.125,-31.73828125,-26.85546875,-41.9921875,-14.6484375
5,1734117568261.0312,-34.1796875,-28.80859375,-34.1796875,-23.4375
6,1734117568264.9375,-30.2734375,-29.296875,-24.4140625,-18.5546875
7,1734117568268.8438,-16.6015625,-25.87890625,-23.92578125,-6.8359375
8,1734117568272.75,-15.625,-26.85546875,-18.5546875,-11.71875
9,1734117568276.6562,-20.99609375,-24.90234375,-25.87890625,-20.99609375
10,1734117568280.5625,-13.671875,-18.06640625,-28.3203125,-12.20703125
11,1734117568284.4688,-15.13671875,-23.92578125,-26.85546875,-11.71875
0,1734117568288.375,-14.16015625,-29.296875,-26.3671875,-4.39453125
1,1734117568292.2812,-14.16015625,-23.92578125,-24.90234375,-2.44140625
2,1734117568296.1875,-17.08984375,-25.390625,-28.80859375,-10.7421875
3,1734117568300.0938,-13.18359375,-27.34375,-29.296875,-13.671875
4,1734117568304,-17.578125,-32.71484375,-32.71484375,-21.484375
5,1734117568307.9062,-16.11328125,-35.15625,-33.203125,-21.484375
6,1734117568311.8125,-18.06640625,-31.25,-33.203125,-9.765625
7,1734117568315.7188,-18.5546875,-30.76171875,-35.15625,-8.30078125
8,1734117568319.625,-16.11328125,-31.73828125,-38.57421875,-15.625
9,1734117568323.5312,-13.18359375,-26.85546875,-35.64453125,-7.8125
10,1734117568327.4375,-8.30078125,-29.296875,-32.71484375,-2.44140625
11,1734117568331.3438,-13.18359375,-34.66796875,-34.1796875,-8.7890625
0,1734117568335.25,-12.6953125,-30.76171875,-42.96875,-9.27734375
1,1734117568339.1562,-14.6484375,-32.2265625,-44.921875,-8.7890625
2,1734117568343.0625,-12.6953125,-37.109375,-32.2265625,-6.34765625
3,1734117568346.9688,-11.71875,-36.1328125,-26.3671875,-4.8828125
4,1734117568350.875,-27.34375,-35.64453125,-30.2734375,-10.7421875
5,1734117568354.7812,-24.4140625,-37.59765625,-26.3671875,-2.9296875
6,1734117568358.6875,-14.16015625,-34.66796875,-25.390625,3.41796875
7,1734117568362.5938,-8.7890625,-29.296875,-27.34375,-1.953125
8,1734117568366.5,-10.7421875,-28.3203125,-28.3203125,-13.671875
9,1734117568370.4062,-9.27734375,-31.73828125,-34.66796875,-10.25390625
10,1734117568374.3125,-10.25390625,-32.71484375,-34.66796875,4.39453125
11,1734117568378.2188,-12.20703125,-31.25,-26.3671875,-4.39453125
0,1734117568382.125,-0.9765625,-29.296875,-30.76171875,-10.7421875
1,1734117568386.0312,-5.37109375,-26.85546875,-34.1796875,-8.7890625
2,1734117568389.9375,-14.6484375,-27.34375,-33.203125,-8.30078125
3,1734117568393.8438,-10.7421875,-26.85546875,-40.52734375,-0.48828125
4,1734117568397.75,-10.7421875,-24.90234375,-35.15625,4.39453125
5,1734117568401.6562,-7.32421875,-29.78515625,-26.85546875,-2.9296875
6,1734117568405.5625,-5.859375,-34.1796875,-33.203125,-5.859375
7,1734117568409.4688,-8.7890625,-34.1796875,-32.2265625,-4.39453125
8,1734117568413.375,-9.765625,-28.3203125,-31.73828125,-10.25390625
9,1734117568417.2812,-14.6484375,-26.85546875,-27.83203125,-4.8828125
10,1734117568421.1875,-14.16015625,-28.3203125,-25.390625,-5.37109375
11,1734117568425.0938,-8.30078125,-24.90234375,-33.203125,-8.30078125
0,1734117568429,-11.71875,-29.296875,-37.59765625,2.44140625
1,1734117568432.9062,-14.6484375,-33.69140625,-43.45703125,6.34765625
2,1734117568436.8125,-4.8828125,-28.3203125,-45.8984375,6.34765625
3,1734117568440.7188,-1.953125,-29.296875,-47.36328125,9.27734375
4,1734117568444.625,-10.7421875,-38.0859375,-40.0390625,12.20703125
5,1734117568448.5312,-8.7890625,-36.1328125,-26.85546875,8.30078125
6,1734117568452.4375,-12.20703125,-31.73828125,-24.4140625,-1.46484375
7,1734117568456.3438,-12.20703125,-28.3203125,-28.80859375,-2.9296875
8,1734117568460.25,-9.765625,-26.3671875,-25.390625,1.46484375
9,1734117568464.1562,-11.71875,-27.34375,-23.4375,6.34765625
10,1734117568468.0625,-12.20703125,-29.78515625,-22.4609375,-1.953125
11,1734117568471.9688,-10.7421875,-29.78515625,-22.94921875,-19.53125
0,1734117568475.875,-9.765625,-30.2734375,-24.90234375,-22.4609375
1,1734117568479.7812,-13.18359375,-29.296875,-26.3671875,-9.765625
2,1734117568483.6875,-17.08984375,-27.83203125,-30.2734375,-13.18359375
3,1734117568487.5938,-14.16015625,-30.76171875,-31.73828125,-18.06640625
4,1734117568491.5,-7.8125,-31.25,-34.66796875,-8.7890625
5,1734117568495.4062,-9.27734375,-31.73828125,-37.109375,-7.32421875
6,1734117568499.3125,-8.7890625,-30.2734375,-44.921875,-10.25390625
7,1734117568503.2188,4.39453125,-26.3671875,-41.9921875,-5.859375
8,1734117568507.125,6.8359375,-26.3671875,-28.80859375,-0.9765625
9,1734117568511.0312,5.37109375,-34.1796875,-39.55078125,-15.13671875
10,1734117568514.9375,9.765625,-38.0859375,-48.828125,-27.34375
11,1734117568518.8438,7.32421875,-30.2734375,-43.45703125,-13.18359375
0,1734117568522.75,-3.90625,-29.296875,-30.2734375,-6.34765625
1,1734117568526.6562,-17.578125,-33.69140625,-25.390625,-6.8359375
2,1734117568530.5625,-18.06640625,-31.73828125,-24.4140625,0
3,1734117568534.4688,-24.4140625,-33.69140625,-29.296875,-2.9296875
4,1734117568538.375,-28.80859375,-35.15625,-33.69140625,-1.46484375
5,1734117568542.2812,-20.5078125,-33.69140625,-24.4140625,0.9765625
6,1734117568546.1875,-13.671875,-30.76171875,-24.4140625,-7.8125
7,1734117568550.0938,-16.6015625,-28.3203125,-28.3203125,-3.41796875
8,1734117568554,-16.11328125,-33.69140625,-31.73828125,9.765625
9,1734117568557.9062,-3.90625,-35.64453125,-32.71484375,10.25390625
10,1734117568561.8125,2.44140625,-31.25,-30.2734375,11.23046875
11,1734117568565.7188,-7.8125,-25.87890625,-34.66796875,6.34765625
0,1734117568569.625,-16.11328125,-30.2734375,-38.57421875,6.8359375
1,1734117568573.5312,-8.30078125,-29.78515625,-39.55078125,16.11328125
2,1734117568577.4375,-13.18359375,-34.66796875,-35.15625,5.37109375
3,1734117568581.3438,-15.13671875,-35.15625,-24.90234375,2.44140625
4,1734117568585.25,-10.7421875,-29.296875,-21.97265625,8.7890625
5,1734117568589.1562,-10.25390625,-35.15625,-27.34375,5.859375
6,1734117568593.0625,-11.23046875,-33.69140625,-33.203125,8.7890625
7,1734117568596.9688,-9.765625,-24.90234375,-29.78515625,12.6953125
8,1734117568600.875,-12.6953125,-27.83203125,-28.3203125,2.9296875
9,1734117568604.7812,-15.625,-32.71484375,-40.0390625,-4.39453125
10,1734117568608.6875,-7.32421875,-32.71484375,-37.59765625,-1.953125
11,1734117568612.5938,-9.27734375,-27.34375,-26.3671875,-4.8828125
0,1734117568616.5,-14.6484375,-28.80859375,-38.57421875,-1.46484375
1,1734117568620.4062,-13.671875,-33.69140625,-40.0390625,-2.9296875
2,1734117568624.3125,-6.8359375,-32.71484375,-26.85546875,0
3,1734117568628.2188,-11.23046875,-30.76171875,-28.3203125,-5.37109375
4,1734117568632.125,-16.11328125,-29.78515625,-21.97265625,-15.13671875
5,1734117568636.0312,-8.7890625,-27.83203125,-11.23046875,-12.20703125
6,1734117568639.9375,1.46484375,-25.390625,-12.6953125,1.46484375
7,1734117568643.8438,-4.8828125,-27.83203125,-21.97265625,-3.90625
8,1734117568647.75,-18.06640625,-25.87890625,-29.78515625,-14.16015625
9,1734117568651.6562,-12.6953125,-29.78515625,-32.2265625,-4.8828125
10,1734117568655.5625,-9.27734375,-29.296875,-35.64453125,4.39453125
11,1734117568659.4688,-18.5546875,-27.34375,-30.2734375,8.7890625
0,1734117568663.375,-23.4375,-29.296875,-27.83203125,-6.34765625
1,1734117568667.2812,-18.06640625,-27.83203125,-31.25,-10.25390625
2,1734117568671.1875,-10.7421875,-23.4375,-34.1796875,-8.7890625
3,1734117568675.0938,-15.13671875,-22.4609375,-34.1796875,-16.6015625
4,1734117568679,-12.6953125,-24.90234375,-27.34375,-14.16015625
5,1734117568682.9062,-0.9765625,-19.04296875,-23.4375,-1.953125
6,1734117568686.8125,-1.953125,-13.671875,-20.5078125,0
7,1734117568690.7188,-12.6953125,-22.4609375,-25.87890625,-14.6484375
8,1734117568694.625,-20.99609375,-33.69140625,-35.64453125,-25.390625
9,1734117568698.5312,-20.5078125,-26.85546875,-38.57421875,-26.85546875
10,1734117568702.4375,-28.3203125,-24.4140625,-34.66796875,-23.4375
11,1734117568706.3438,-25.390625,-26.3671875,-29.296875,-21.97265625
0,1734117568710.25,-15.13671875,-21.97265625,-30.76171875,-24.90234375
1,1734117568714.1562,-11.71875,-23.4375,-29.296875,-24.90234375
2,1734117568718.0625,-17.08984375,-21.97265625,-17.578125,-18.5546875
3,1734117568721.9688,-20.99609375,-20.01953125,-17.08984375,-18.5546875
4,1734117568725.875,-11.71875,-21.484375,-20.99609375,-18.06640625
5,1734117568729.7812,-9.765625,-23.92578125,-16.6015625,-13.671875
6,1734117568733.6875,-25.390625,-30.76171875,-17.08984375,-5.37109375
7,1734117568737.5938,-31.73828125,-30.2734375,-20.01953125,-13.671875
8,1734117568741.5,-32.2265625,-25.390625,-23.4375,-35.15625
9,1734117568745.4062,-28.80859375,-25.87890625,-18.5546875,-35.15625
10,1734117568749.3125,-13.671875,-26.3671875,-18.06640625,-22.4609375
11,1734117568753.2188,-13.18359375,-23.4375,-32.2265625,-17.578125
0,1734117568757.125,-16.11328125,-26.85546875,-30.76171875,-18.5546875
1,1734117568761.0312,-8.7890625,-33.203125,-22.4609375,-15.13671875
2,1734117568764.9375,-14.16015625,-34.66796875,-23.4375,-18.5546875
3,1734117568768.8438,-12.6953125,-28.80859375,-25.390625,-18.5546875
4,1734117568772.75,-8.30078125,-27.34375,-20.01953125,1.953125
5,1734117568776.6562,-10.25390625,-34.66796875,-16.11328125,0
6,1734117568780.5625,-14.6484375,-38.57421875,-18.5546875,-10.7421875
7,1734117568784.4688,-22.94921875,-35.64453125,-20.5078125,-19.04296875
8,1734117568788.375,-22.4609375,-30.76171875,-21.484375,-22.94921875
9,1734117568792.2812,-16.11328125,-21.97265625,-24.4140625,3.41796875
10,1734117568796.1875,-16.6015625,-19.04296875,-26.3671875,5.37109375
11,1734117568800.0938,-21.97265625,-23.92578125,-26.85546875,-17.578125
0,1734117568804,-28.80859375,-32.71484375,-21.97265625,-22.94921875
1,1734117568807.9062,-21.484375,-32.71484375,-10.7421875,-11.23046875
2,1734117568811.8125,-10.25390625,-31.25,-14.6484375,-7.8125
3,1734117568815.7188,-21.484375,-39.55078125,-17.578125,-15.625
4,1734117568819.625,-19.04296875,-41.9921875,-16.6015625,-11.23046875
5,1734117568823.5312,-20.01953125,-36.62109375,-24.90234375,-8.30078125
6,1734117568827.4375,-31.25,-34.1796875,-30.2734375,-16.6015625
7,1734117568831.3438,-27.34375,-44.43359375,-27.34375,-20.99609375
8,1734117568835.25,-29.296875,-44.921875,-22.94921875,-21.97265625
9,1734117568839.1562,-26.3671875,-35.15625,-18.06640625,-20.5078125
10,1734117568843.0625,-34.66796875,-34.1796875,-18.5546875,-27.34375
11,1734117568846.9688,-33.69140625,-30.76171875,-27.83203125,-25.87890625
0,1734117568850.875,-25.390625,-34.66796875,-34.1796875,-14.16015625
1,1734117568854.7812,-38.0859375,-32.2265625,-34.1796875,-14.6484375
2,1734117568858.6875,-38.57421875,-27.34375,-22.4609375,-15.625
3,1734117568862.5938,-35.64453125,-33.203125,-20.01953125,-20.01953125
4,1734117568866.5,-32.2265625,-34.66796875,-26.3671875,-18.5546875
5,1734117568870.4062,-26.3671875,-34.1796875,-26.3671875,-8.30078125
6,1734117568874.3125,-24.4140625,-28.3203125,-21.484375,-14.16015625
7,1734117568878.2188,-22.4609375,-24.4140625,-12.6953125,-16.11328125
8,1734117568882.125,-26.3671875,-25.390625,-14.16015625,-1.46484375
9,1734117568886.0312,-22.4609375,-27.83203125,-19.04296875,0
10,1734117568889.9375,-13.671875,-29.78515625,-29.78515625,-5.859375
11,1734117568893.8438,-23.4375,-30.2734375,-23.92578125,-8.30078125
0,1734117568897.75,-22.94921875,-31.73828125,-20.99609375,-7.8125
1,1734117568901.6562,-22.4609375,-27.34375,-31.73828125,-8.7890625
2,1734117568905.5625,-27.83203125,-25.87890625,-31.25,-7.8125
3,1734117568909.4688,-24.4140625,-31.25,-38.0859375,-11.71875
4,1734117568913.375,-17.578125,-26.85546875,-48.828125,-14.16015625
5,1734117568917.2812,-10.25390625,-23.4375,-42.48046875,-1.953125
6,1734117568921.1875,-15.625,-27.83203125,-28.80859375,-5.37109375
7,1734117568925.0938,-25.390625,-32.2265625,-20.5078125,-12.6953125
8,1734117568929,-27.83203125,-35.15625,-18.06640625,-2.9296875
9,1734117568932.9062,-20.5078125,-30.2734375,-18.06640625,-4.8828125
10,1734117568936.8125,-11.71875,-26.85546875,-21.97265625,-11.71875
11,1734117568940.7188,-9.27734375,-25.390625,-24.4140625,-4.8828125
0,1734117568944.625,-2.44140625,-28.3203125,-21.97265625,-3.41796875
1,1734117568948.5312,-1.46484375,-28.3203125,-25.390625,-2.44140625
2,1734117568952.4375,-8.30078125,-34.66796875,-29.78515625,-2.44140625
3,1734117568956.3438,-10.7421875,-37.109375,-28.80859375,1.953125
4,1734117568960.25,-4.8828125,-25.390625,-22.94921875,5.37109375
5,1734117568964.1562,-3.41796875,-22.4609375,-23.4375,0.9765625
6,1734117568968.0625,-9.27734375,-29.78515625,-23.4375,-12.20703125
7,1734117568971.9688,-16.6015625,-33.69140625,-17.08984375,-14.16015625
8,1734117568975.875,-8.7890625,-30.2734375,-19.04296875,-9.27734375
9,1734117568979.7812,-7.8125,-26.3671875,-23.4375,-6.8359375
10,1734117568983.6875,-22.94921875,-30.76171875,-26.3671875,-0.48828125
11,1734117568987.5938,-24.90234375,-27.83203125,-25.390625,-1.953125
0,1734117568991.5,-19.04296875,-26.85546875,-20.99609375,-7.8125
1,1734117568995.4062,-18.5546875,-35.15625,-24.90234375,-9.27734375
2,1734117568999.3125,-22.94921875,-34.66796875,-29.78515625,-2.9296875
3,1734117569003.2188,-20.99609375,-35.15625,-30.2734375,0.48828125
4,1734117569007.125,-18.5546875,-38.57421875,-31.73828125,-0.48828125
5,1734117569011.0312,-15.13671875,-40.52734375,-29.296875,-5.859375
6,1734117569014.9375,-19.04296875,-36.62109375,-26.3671875,-2.44140625
7,1734117569018.8438,-18.06640625,-33.69140625,-29.78515625,4.8828125
8,1734117569022.75,-17.08984375,-37.109375,-26.3671875,-1.46484375
9,1734117569026.6562,-28.3203125,-36.1328125,-25.390625,-8.7890625
10,1734117569030.5625,-32.2265625,-30.2734375,-25.87890625,-2.9296875
11,1734117569034.4688,-32.71484375,-30.2734375,-27.83203125,2.44140625
0,1734117569038.375,-33.69140625,-31.73828125,-29.296875,-8.30078125
1,1734117569042.2812,-39.0625,-33.69140625,-25.390625,-12.20703125
2,1734117569046.1875,-35.64453125,-36.62109375,-28.80859375,-9.27734375
3,1734117569050.0938,-23.4375,-34.66796875,-33.203125,-12.6953125
4,1734117569054,-31.73828125,-32.2265625,-29.296875,-11.23046875
5,1734117569057.9062,-33.69140625,-31.73828125,-25.390625,-6.8359375
6,1734117569061.8125,-22.94921875,-33.69140625,-20.99609375,-1.46484375
7,1734117569065.7188,-28.3203125,-31.73828125,-21.97265625,-6.34765625
8,1734117569069.625,-31.73828125,-29.78515625,-31.73828125,-18.5546875
9,1734117569073.5312,-31.73828125,-29.296875,-30.2734375,-19.04296875
10,1734117569077.4375,-37.109375,-30.2734375,-26.85546875,-11.23046875
11,1734117569081.3438,-37.109375,-34.66796875,-23.4375,-13.18359375
0,1734117569085.25,-40.0390625,-37.59765625,-22.4609375,-35.15625
1,1734117569089.1562,-41.015625,-36.62109375,-31.25,-38.57421875
2,1734117569093.0625,-39.0625,-32.2265625,-29.78515625,-30.2734375
3,1734117569096.9688,-33.203125,-35.15625,-28.3203125,-27.34375
4,1734117569100.875,-25.390625,-39.0625,-28.3203125,-28.80859375
5,1734117569104.7812,-27.34375,-39.0625,-20.01953125,-28.80859375
6,1734117569108.6875,-24.90234375,-35.64453125,-19.53125,-17.08984375
7,1734117569112.5938,-31.73828125,-28.3203125,-20.5078125,-20.01953125
8,1734117569116.5,-36.62109375,-28.3203125,-18.06640625,-22.94921875
9,1734117569120.4062,-27.34375,-27.34375,-19.53125,-20.99609375
10,1734117569124.3125,-28.3203125,-28.3203125,-26.85546875,-23.4375
11,1734117569128.2188,-31.25,-31.25,-29.296875,-27.83203125
0,1734117569132.125,-23.92578125,-30.76171875,-24.90234375,-30.76171875
1,1734117569136.0312,-25.390625,-32.71484375,-20.01953125,-31.25
2,1734117569139.9375,-34.1796875,-33.203125,-19.04296875,-33.203125
3,1734117569143.8438,-38.57421875,-29.78515625,-21.97265625,-35.64453125
4,1734117569147.75,-39.0625,-32.2265625,-25.390625,-30.76171875
5,1734117569151.6562,-26.3671875,-34.1796875,-28.3203125,-21.484375
6,1734117569155.5625,-19.04296875,-31.25,-22.94921875,-17.08984375
7,1734117569159.4688,-16.11328125,-25.390625,-16.11328125,-10.25390625
8,1734117569163.375,-24.4140625,-25.390625,-14.6484375,-8.7890625
9,1734117569167.2812,-30.2734375,-28.3203125,-16.6015625,-10.25390625
10,1734117569171.1875,-20.5078125,-26.85546875,-12.6953125,-17.578125
11,1734117569175.0938,-24.90234375,-26.85546875,-10.25390625,-13.18359375
0,1734117569179,-28.3203125,-26.85546875,-16.6015625,-10.25390625
1,1734117569182.9062,-17.08984375,-26.3671875,-19.04296875,-13.18359375
2,1734117569186.8125,-17.578125,-23.92578125,-20.01953125,-10.25390625
3,1734117569190.7188,-15.13671875,-23.92578125,-20.01953125,-9.27734375
4,1734117569194.625,-9.765625,-29.78515625,-24.4140625,-6.34765625
5,1734117569198.5312,-7.8125,-32.2265625,-30.2734375,-1.46484375
6,1734117569202.4375,-7.8125,-32.2265625,-33.69140625,-4.39453125
7,1734117569206.3438,-14.16015625,-33.69140625,-30.2734375,-0.9765625
8,1734117569210.25,-13.671875,-37.109375,-25.87890625,6.34765625
9,1734117569214.1562,-15.13671875,-33.203125,-22.94921875,13.18359375
10,1734117569218.0625,-10.25390625,-28.3203125,-29.296875,2.9296875
11,1734117569221.9688,-1.953125,-29.78515625,-25.390625,-5.37109375
0,1734117569225.875,-5.859375,-29.296875,-17.578125,-2.44140625
1,1734117569229.7812,-10.25390625,-30.2734375,-24.90234375,-8.7890625
2,1734117569233.6875,-5.37109375,-27.34375,-24.90234375,-12.6953125
3,1734117569237.5938,2.44140625,-25.87890625,-23.92578125,-8.30078125
4,1734117569241.5,3.41796875,-25.390625,-36.62109375,-6.8359375
5,1734117569245.4062,-0.48828125,-25.390625,-41.015625,-16.11328125
6,1734117569249.3125,0.9765625,-27.83203125,-24.90234375,-12.6953125
7,1734117569253.2188,-4.39453125,-25.390625,-22.94921875,-4.39453125
8,1734117569257.125,-14.16015625,-24.90234375,-24.90234375,-6.34765625
9,1734117569261.0312,-11.23046875,-29.296875,-31.73828125,-7.32421875
10,1734117569264.9375,-11.23046875,-34.66796875,-35.64453125,-12.20703125
11,1734117569268.8438,-6.34765625,-28.80859375,-22.94921875,-10.25390625
0,1734117569272.75,0.48828125,-22.94921875,-25.390625,-7.32421875
1,1734117569276.6562,3.41796875,-28.80859375,-25.87890625,-10.25390625
2,1734117569280.5625,6.8359375,-30.2734375,-22.4609375,-4.39453125
3,1734117569284.4688,-1.953125,-21.484375,-26.85546875,1.46484375
4,1734117569288.375,-2.9296875,-16.11328125,-23.92578125,4.8828125
5,1734117569292.2812,-5.859375,-26.85546875,-18.06640625,4.39453125
6,1734117569296.1875,-12.6953125,-33.203125,-18.5546875,-9.765625
7,1734117569300.0938,-10.7421875,-30.76171875,-21.484375,-6.8359375
8,1734117569304,-11.71875,-28.3203125,-20.01953125,-5.859375
9,1734117569307.9062,-7.8125,-30.76171875,-16.11328125,-20.99609375
10,1734117569311.8125,1.953125,-27.34375,-20.01953125,-21.484375
11,1734117569315.7188,6.34765625,-22.94921875,-22.4609375,-8.7890625
0,1734117569319.625,9.765625,-25.87890625,-21.484375,-0.48828125
1,1734117569323.5312,8.30078125,-28.80859375,-35.15625,-14.16015625
2,1734117569327.4375,5.859375,-31.73828125,-37.109375,-16.6015625
3,1734117569331.3438,-0.9765625,-32.2265625,-31.25,-17.578125
4,1734117569335.25,-13.671875,-35.64453125,-33.69140625,-10.25390625
5,1734117569339.1562,-13.18359375,-37.59765625,-37.59765625,1.46484375
6,1734117569343.0625,-5.859375,-31.25,-30.76171875,2.9296875
7,1734117569346.9688,-23.4375,-32.2265625,-7.8125,13.18359375
8,1734117569350.875,-40.0390625,-39.0625,-10.25390625,9.27734375
9,1734117569354.7812,-31.73828125,-38.57421875,-23.4375,-8.7890625
10,1734117569358.6875,-39.55078125,-39.0625,-24.4140625,-14.6484375
11,1734117569362.5938,-39.55078125,-43.9453125,-28.3203125,-7.32421875
0,1734117569366.5,-30.2734375,-39.55078125,-28.3203125,-5.37109375
1,1734117569370.4062,-30.76171875,-32.2265625,-36.1328125,-11.23046875
2,1734117569374.3125,-28.80859375,-28.80859375,-33.203125,-1.46484375
3,1734117569378.2188,-30.2734375,-31.73828125,-28.3203125,6.8359375
4,1734117569382.125,-22.4609375,-33.69140625,-32.71484375,2.9296875
5,1734117569386.0312,-20.5078125,-31.73828125,-29.296875,5.37109375
6,1734117569389.9375,-24.4140625,-31.25,-22.4609375,0.9765625
7,1734117569393.8438,-17.578125,-35.15625,-16.11328125,-3.41796875
8,1734117569397.75,-16.11328125,-35.15625,-19.53125,-11.71875
9,1734117569401.6562,-19.53125,-31.73828125,-30.76171875,-27.83203125
10,1734117569405.5625,-18.06640625,-37.109375,-30.76171875,-35.15625
11,1734117569409.4688,-16.11328125,-41.015625,-29.296875,-22.4609375
0,1734117569413.375,-13.18359375,-30.2734375,-26.3671875,-20.99609375
1,1734117569417.2812,-11.23046875,-28.3203125,-15.13671875,-29.78515625
2,1734117569421.1875,-9.765625,-33.203125,-13.671875,-16.6015625
3,1734117569425.0938,-9.765625,-27.83203125,-29.78515625,-7.32421875
4,1734117569429,-14.16015625,-23.92578125,-46.38671875,-16.11328125
5,1734117569432.9062,-9.765625,-25.390625,-40.52734375,-18.06640625
6,1734117569436.8125,3.41796875,-24.90234375,-21.484375,-12.20703125
7,1734117569440.7188,5.37109375,-24.90234375,-17.578125,-5.37109375
8,1734117569444.625,-4.39453125,-30.2734375,-24.90234375,-8.7890625
9,1734117569448.5312,-6.34765625,-31.73828125,-27.83203125,-3.90625
10,1734117569452.4375,5.37109375,-28.3203125,-29.296875,10.7421875
11,1734117569456.3438,2.9296875,-30.76171875,-25.87890625,-5.37109375
0,1734117569460.25,-8.7890625,-27.83203125,-21.97265625,-15.625
1,1734117569464.1562,-12.6953125,-23.4375,-19.04296875,-6.34765625
2,1734117569468.0625,-15.625,-23.92578125,-25.390625,-3.90625
3,1734117569471.9688,-16.11328125,-25.87890625,-23.92578125,-11.71875
4,1734117569475.875,-15.13671875,-25.87890625,-20.99609375,-25.87890625
5,1734117569479.7812,-12.6953125,-26.3671875,-23.4375,-25.87890625
6,1734117569483.6875,-9.27734375,-31.25,-23.4375,-14.16015625
7,1734117569487.5938,-13.18359375,-34.1796875,-23.4375,-19.53125
8,1734117569491.5,-21.484375,-31.73828125,-25.390625,-33.203125
9,1734117569495.4062,-20.01953125,-31.73828125,-24.4140625,-23.92578125
10,1734117569499.3125,-12.6953125,-34.66796875,-22.94921875,-17.578125
11,1734117569503.2188,-12.20703125,-32.71484375,-20.99609375,-20.01953125
0,1734117569507.125,-11.71875,-24.4140625,-22.94921875,-19.53125
1,1734117569511.0312,-6.34765625,-27.83203125,-25.87890625,-15.625
2,1734117569514.9375,-6.34765625,-31.25,-19.04296875,-18.06640625
3,1734117569518.8438,-5.37109375,-22.94921875,-18.06640625,-16.6015625
4,1734117569522.75,-5.37109375,-26.3671875,-27.34375,-12.20703125
5,1734117569526.6562,-1.953125,-26.85546875,-32.2265625,-12.20703125
6,1734117569530.5625,1.953125,-23.4375,-28.80859375,-10.25390625
7,1734117569534.4688,-6.34765625,-32.2265625,-26.85546875,-23.92578125
8,1734117569538.375,-8.30078125,-33.69140625,-27.83203125,-28.80859375
9,1734117569542.2812,-9.765625,-33.69140625,-17.08984375,-14.16015625
10,1734117569546.1875,-18.06640625,-38.0859375,-17.08984375,-12.20703125
11,1734117569550.0938,-14.6484375,-36.62109375,-29.78515625,-21.97265625
0,1734117569554,-16.6015625,-32.71484375,-29.78515625,-28.3203125
1,1734117569557.9062,-13.671875,-28.3203125,-23.92578125,-25.87890625
2,1734117569561.8125,2.9296875,-28.80859375,-29.296875,-20.5078125
3,1734117569565.7188,-3.41796875,-29.296875,-32.71484375,-18.5546875
4,1734117569569.625,-14.16015625,-26.3671875,-27.83203125,-9.27734375
5,1734117569573.5312,-11.71875,-33.69140625,-41.015625,-14.6484375
6,1734117569577.4375,-17.08984375,-34.66796875,-44.43359375,-22.94921875
7,1734117569581.3438,-24.90234375,-33.69140625,-32.2265625,-28.3203125
8,1734117569585.25,-32.71484375,-36.1328125,-29.296875,-33.203125
9,1734117569589.1562,-30.76171875,-33.203125,-23.92578125,-20.01953125
10,1734117569593.0625,-20.5078125,-30.76171875,-25.87890625,-16.6015625
11,1734117569596.9688,-21.484375,-28.3203125,-32.2265625,-25.87890625
0,1734117569600.875,-24.4140625,-23.4375,-29.78515625,-25.390625
1,1734117569604.7812,-23.92578125,-27.83203125,-27.83203125,-25.390625
2,1734117569608.6875,-25.390625,-33.203125,-30.2734375,-31.25
3,1734117569612.5938,-31.25,-30.76171875,-29.78515625,-25.87890625
4,1734117569616.5,-30.76171875,-28.80859375,-25.87890625,-12.20703125
5,1734117569620.4062,-23.92578125,-33.69140625,-30.2734375,-18.5546875
6,1734117569624.3125,-13.18359375,-32.2265625,-32.2265625,-22.94921875
7,1734117569628.2188,-4.8828125,-26.3671875,-31.73828125,-21.484375
8,1734117569632.125,-8.30078125,-25.390625,-28.80859375,-19.04296875
9,1734117569636.0312,-18.06640625,-31.73828125,-22.94921875,-26.3671875
10,1734117569639.9375,-27.83203125,-37.59765625,-22.94921875,-34.1796875
11,1734117569643.8438,-23.4375,-35.15625,-21.484375,-22.94921875
0,1734117569647.75,-20.99609375,-34.66796875,-19.53125,-18.5546875
1,1734117569651.6562,-20.5078125,-31.73828125,-20.01953125,-28.3203125
2,1734117569655.5625,-26.85546875,-27.83203125,-23.4375,-32.71484375
3,1734117569659.4688,-31.25,-28.80859375,-23.4375,-27.83203125
4,1734117569663.375,-15.625,-24.90234375,-21.484375,-23.4375
5,1734117569667.2812,-22.4609375,-30.2734375,-22.4609375,-33.69140625
6,1734117569671.1875,-38.57421875,-35.64453125,-26.3671875,-45.41015625
7,1734117569675.0938,-31.73828125,-34.1796875,-30.76171875,-37.109375
8,1734117569679,-31.73828125,-32.71484375,-27.83203125,-34.1796875
9,1734117569682.9062,-33.69140625,-30.76171875,-28.3203125,-37.59765625
10,1734117569686.8125,-22.94921875,-28.3203125,-22.4609375,-29.78515625
11,1734117569690.7188,-17.08984375,-27.83203125,-22.94921875,-25.390625
0,1734117569694.625,-16.6015625,-39.0625,-33.69140625,-32.71484375
1,1734117569698.5312,-16.6015625,-38.0859375,-25.390625,-30.2734375
2,1734117569702.4375,-19.53125,-31.25,-20.5078125,-30.76171875
3,1734117569706.3438,-20.99609375,-35.15625,-26.3671875,-27.83203125
4,1734117569710.25,-17.578125,-31.73828125,-38.0859375,-26.3671875
5,1734117569714.1562,-22.94921875,-32.2265625,-37.59765625,-33.203125
6,1734117569718.0625,-31.73828125,-33.69140625,-26.3671875,-36.1328125
7,1734117569721.9688,-31.73828125,-30.2734375,-26.85546875,-38.0859375
8,1734117569725.875,-18.06640625,-32.71484375,-26.3671875,-33.69140625
9,1734117569729.7812,-7.32421875,-29.296875,-23.92578125,-26.3671875
10,1734117569733.6875,-17.578125,-31.25,-26.3671875,-19.53125
11,1734117569737.5938,-20.5078125,-31.73828125,-26.85546875,-24.90234375
0,1734117569741.5,-22.4609375,-29.78515625,-21.484375,-24.90234375
1,1734117569745.4062,-24.90234375,-39.0625,-26.3671875,-26.3671875
2,1734117569749.3125,-21.97265625,-35.64453125,-32.2265625,-30.76171875
3,1734117569753.2188,-23.4375,-29.78515625,-22.94921875,-27.83203125
4,1734117569757.125,-23.4375,-29.78515625,-21.484375,-28.80859375
5,1734117569761.0312,-23.4375,-31.25,-26.3671875,-31.25
6,1734117569764.9375,-28.3203125,-33.203125,-22.94921875,-35.15625
7,1734117569768.8438,-23.4375,-29.78515625,-21.97265625,-22.94921875
8,1734117569772.75,-25.390625,-32.2265625,-32.71484375,-22.4609375
9,1734117569776.6562,-37.109375,-39.55078125,-34.66796875,-31.73828125
10,1734117569780.5625,-36.62109375,-30.2734375,-24.4140625,-17.578125
11,1734117569784.4688,-38.57421875,-28.3203125,-24.4140625,-18.06640625
0,1734117569788.375,-30.2734375,-36.62109375,-27.34375,-26.3671875
1,1734117569792.2812,-19.53125,-36.1328125,-28.3203125,-30.76171875
2,1734117569796.1875,-20.99609375,-36.1328125,-27.34375,-34.1796875
3,1734117569800.0938,-15.13671875,-33.69140625,-26.85546875,-20.99609375
4,1734117569804,-8.7890625,-32.71484375,-28.80859375,-14.16015625
5,1734117569807.9062,-16.11328125,-27.83203125,-26.85546875,-15.13671875
6,1734117569811.8125,-17.08984375,-30.2734375,-22.94921875,-9.27734375
7,1734117569815.7188,-25.390625,-36.1328125,-24.90234375,-13.671875
8,1734117569819.625,-28.3203125,-33.203125,-26.3671875,-33.203125
9,1734117569823.5312,-23.92578125,-28.80859375,-23.92578125,-33.203125
10,1734117569827.4375,-24.4140625,-21.484375,-27.34375,-20.01953125
11,1734117569831.3438,-24.4140625,-28.3203125,-29.296875,-20.99609375
0,1734117569835.25,-30.76171875,-37.109375,-20.01953125,-32.2265625
1,1734117569839.1562,-25.87890625,-32.71484375,-18.5546875,-26.85546875
2,1734117569843.0625,-21.484375,-29.78515625,-24.90234375,-21.484375
3,1734117569846.9688,-24.90234375,-33.203125,-23.92578125,-21.97265625
4,1734117569850.875,-23.92578125,-31.25,-24.90234375,-22.94921875
5,1734117569854.7812,-29.296875,-28.80859375,-26.3671875,-20.01953125
6,1734117569858.6875,-26.3671875,-31.25,-26.85546875,-3.90625
7,1734117569862.5938,-20.5078125,-34.1796875,-35.64453125,-10.7421875
8,1734117569866.5,-22.4609375,-32.2265625,-35.64453125,-19.04296875
9,1734117569870.4062,-23.4375,-29.296875,-23.4375,-15.625
10,1734117569874.3125,-26.3671875,-33.203125,-16.6015625,-15.625
11,1734117569878.2188,-24.90234375,-31.25,-19.53125,-17.578125
0,1734117569882.125,-19.53125,-33.69140625,-20.99609375,-13.18359375
1,1734117569886.0312,-29.296875,-35.64453125,-25.87890625,-8.7890625
2,1734117569889.9375,-35.64453125,-30.2734375,-24.4140625,-17.578125
3,1734117569893.8438,-36.1328125,-35.15625,-20.01953125,-21.484375
4,1734117569897.75,-41.9921875,-40.0390625,-20.99609375,-25.87890625
5,1734117569901.6562,-36.1328125,-36.62109375,-25.87890625,-23.92578125
6,1734117569905.5625,-30.76171875,-34.66796875,-29.296875,-14.6484375
7,1734117569909.4688,-33.203125,-29.296875,-29.78515625,-13.18359375
8,1734117569913.375,-32.71484375,-26.85546875,-37.109375,-16.6015625
9,1734117569917.2812,-29.78515625,-25.390625,-39.0625,-25.390625
10,1734117569921.1875,-27.83203125,-29.78515625,-31.73828125,-29.296875
11,1734117569925.0938,-30.76171875,-36.62109375,-25.87890625,-24.90234375
0,1734117569929,-27.83203125,-36.1328125,-22.94921875,-17.578125
1,1734117569932.9062,-18.5546875,-28.3203125,-27.83203125,-17.578125
2,1734117569936.8125,-18.5546875,-25.87890625,-27.34375,-24.90234375
3,1734117569940.7188,-18.5546875,-29.78515625,-16.11328125,-18.5546875
4,1734117569944.625,-20.5078125,-29.78515625,-15.13671875,-23.4375
5,1734117569948.5312,-25.87890625,-33.69140625,-22.4609375,-34.66796875
6,1734117569952.4375,-26.85546875,-35.64453125,-28.80859375,-29.78515625
7,1734117569956.3438,-38.57421875,-34.1796875,-34.1796875,-31.25
8,1734117569960.25,-37.59765625,-30.76171875,-27.34375,-29.78515625
9,1734117569964.1562,-16.11328125,-26.85546875,-12.6953125,-18.06640625
10,1734117569968.0625,-20.99609375,-27.83203125,-12.6953125,-27.34375
11,1734117569971.9688,-31.25,-30.76171875,-21.484375,-32.2265625
0,1734117569975.875,-22.4609375,-29.78515625,-22.94921875,-25.87890625
1,1734117569979.7812,-21.97265625,-30.76171875,-13.18359375,-33.203125
2,1734117569983.6875,-25.87890625,-32.71484375,-16.11328125,-32.71484375
3,1734117569987.5938,-22.94921875,-31.25,-23.4375,-38.0859375
4,1734117569991.5,-17.578125,-28.80859375,-19.04296875,-35.64453125
5,1734117569995.4062,-12.6953125,-26.3671875,-19.04296875,-34.1796875
6,1734117569999.3125,-18.5546875,-30.2734375,-22.4609375,-40.52734375
7,1734117570003.2188,-25.87890625,-30.2734375,-26.3671875,-38.57421875
8,1734117570007.125,-24.90234375,-28.80859375,-24.4140625,-32.2265625
9,1734117570011.0312,-27.34375,-36.1328125,-28.3203125,-34.66796875
10,1734117570014.9375,-38.0859375,-38.57421875,-36.1328125,-52.734375
11,1734117570018.8438,-44.921875,-36.1328125,-30.2734375,-53.22265625
0,1734117570022.75,-44.43359375,-35.64453125,-30.2734375,-42.48046875
1,1734117570026.6562,-39.0625,-31.25,-41.9921875,-33.69140625
2,1734117570030.5625,-31.25,-29.296875,-35.15625,-33.69140625
3,1734117570034.4688,-23.4375,-30.76171875,-20.99609375,-36.62109375
4,1734117570038.375,-11.23046875,-28.3203125,-22.4609375,-30.2734375
5,1734117570042.2812,-11.71875,-24.90234375,-28.3203125,-30.2734375
6,1734117570046.1875,-14.16015625,-27.34375,-27.34375,-27.34375
7,1734117570050.0938,-11.23046875,-33.69140625,-16.6015625,-20.5078125
8,1734117570054,-9.27734375,-31.25,-12.20703125,-7.8125
9,1734117570057.9062,-11.23046875,-29.296875,-18.06640625,-17.08984375
10,1734117570061.8125,-26.3671875,-31.73828125,-30.2734375,-28.3203125
11,1734117570065.7188,-28.3203125,-33.203125,-32.71484375,-21.484375
0,1734117570069.625,-18.06640625,-33.203125,-27.83203125,-23.4375
1,1734117570073.5312,-15.625,-31.25,-23.4375,-7.32421875
2,1734117570077.4375,-12.6953125,-23.4375,-17.578125,-7.8125
3,1734117570081.3438,-5.37109375,-19.53125,-23.4375,-15.625
4,1734117570085.25,-7.8125,-27.34375,-27.83203125,-12.20703125
5,1734117570089.1562,-20.99609375,-30.76171875,-21.97265625,-14.6484375
6,1734117570093.0625,-27.83203125,-28.3203125,-20.99609375,-21.97265625
7,1734117570096.9688,-25.390625,-29.296875,-26.85546875,-18.5546875
8,1734117570100.875,-20.5078125,-31.73828125,-24.90234375,-16.11328125
9,1734117570104.7812,-22.94921875,-32.2265625,-21.484375,-19.53125
10,1734117570108.6875,-26.85546875,-28.80859375,-27.83203125,-14.16015625
11,1734117570112.5938,-29.78515625,-33.203125,-38.0859375,-21.97265625
0,1734117570116.5,-20.5078125,-37.109375,-41.9921875,-22.94921875
1,1734117570120.4062,-17.08984375,-34.1796875,-33.203125,-11.23046875
2,1734117570124.3125,-31.73828125,-34.66796875,-20.5078125,-15.625
3,1734117570128.2188,-32.2265625,-32.2265625,-14.16015625,-19.53125
4,1734117570132.125,-33.69140625,-31.73828125,-20.01953125,-18.06640625
5,1734117570136.0312,-26.3671875,-33.203125,-20.5078125,-15.13671875
6,1734117570139.9375,-12.6953125,-31.73828125,-20.01953125,-8.7890625
7,1734117570143.8438,-13.18359375,-35.15625,-34.66796875,-5.37109375
8,1734117570147.75,-14.16015625,-36.62109375,-39.55078125,-5.37109375
9,1734117570151.6562,-16.11328125,-31.73828125,-28.3203125,-11.71875
10,1734117570155.5625,-13.18359375,-31.25,-21.484375,-10.7421875
11,1734117570159.4688,-8.30078125,-34.66796875,-25.87890625,-11.71875
0,1734117570163.375,-16.6015625,-34.66796875,-34.1796875,-26.85546875
1,1734117570167.2812,-12.20703125,-28.80859375,-31.73828125,-36.62109375
2,1734117570171.1875,-5.859375,-30.76171875,-28.3203125,-37.59765625
3,1734117570175.0938,-9.27734375,-33.203125,-29.296875,-33.69140625
4,1734117570179,-3.90625,-28.3203125,-31.73828125,-31.73828125
5,1734117570182.9062,-4.39453125,-25.390625,-29.296875,-31.25
6,1734117570186.8125,-9.27734375,-19.53125,-32.2265625,-14.6484375
7,1734117570190.7188,-20.5078125,-17.578125,-29.296875,2.44140625
8,1734117570194.625,-24.4140625,-21.484375,-19.04296875,-4.8828125
9,1734117570198.5312,-15.625,-20.01953125,-18.5546875,1.953125
10,1734117570202.4375,-23.92578125,-25.87890625,-21.484375,3.41796875
11,1734117570206.3438,-43.45703125,-34.66796875,-24.4140625,-7.8125
0,1734117570210.25,-46.38671875,-32.2265625,-25.390625,-26.85546875
1,1734117570214.1562,-44.921875,-31.73828125,-20.01953125,-36.1328125
2,1734117570218.0625,-45.8984375,-30.76171875,-16.11328125,-32.2265625
3,1734117570221.9688,-43.9453125,-27.83203125,-24.4140625,-27.34375
4,1734117570225.875,-30.76171875,-27.34375,-28.80859375,-22.94921875
5,1734117570229.7812,-20.99609375,-23.92578125,-21.484375,-18.5546875
6,1734117570233.6875,-16.11328125,-22.4609375,-24.4140625,-12.20703125
7,1734117570237.5938,-8.30078125,-21.484375,-36.1328125,-11.23046875
8,1734117570241.5,-20.99609375,-24.4140625,-32.71484375,-8.7890625
9,1734117570245.4062,-32.2265625,-24.90234375,-25.390625,-4.39453125
10,1734117570249.3125,-28.3203125,-21.97265625,-25.87890625,-5.859375
11,1734117570253.2188,-33.69140625,-27.34375,-29.296875,-13.671875
0,1734117570257.125,-30.76171875,-31.25,-26.3671875,-24.4140625
1,1734117570261.0312,-25.87890625,-27.34375,-21.484375,-36.62109375
2,1734117570264.9375,-34.66796875,-26.85546875,-22.4609375,-41.50390625
3,1734117570268.8438,-32.2265625,-29.78515625,-22.4609375,-34.66796875
4,1734117570272.75,-30.76171875,-28.3203125,-15.625,-28.3203125
5,1734117570276.6562,-33.69140625,-32.2265625,-20.01953125,-27.83203125
6,1734117570280.5625,-40.52734375,-37.59765625,-35.64453125,-35.64453125
7,1734117570284.4688,-41.50390625,-32.2265625,-40.0390625,-41.50390625
8,1734117570288.375,-35.64453125,-25.87890625,-34.66796875,-40.0390625
9,1734117570292.2812,-29.296875,-24.90234375,-31.73828125,-44.921875
10,1734117570296.1875,-24.90234375,-21.97265625,-28.3203125,-41.015625
11,1734117570300.0938,-34.1796875,-22.94921875,-27.34375,-29.296875
0,1734117570304,-34.1796875,-25.87890625,-26.85546875,-28.3203125
1,1734117570307.9062,-34.66796875,-33.203125,-26.3671875,-36.1328125
2,1734117570311.8125,-38.0859375,-36.62109375,-23.4375,-45.41015625
3,1734117570315.7188,-27.34375,-33.69140625,-28.80859375,-48.33984375
4,1734117570319.625,-19.53125,-35.15625,-35.15625,-32.2265625
5,1734117570323.5312,-19.53125,-35.15625,-23.92578125,-20.99609375
6,1734117570327.4375,-22.4609375,-33.69140625,-23.4375,-19.53125
7,1734117570331.3438,-25.87890625,-32.2265625,-34.66796875,-20.5078125
8,1734117570335.25,-23.92578125,-22.4609375,-34.66796875,-16.11328125
9,1734117570339.1562,-15.13671875,-20.01953125,-30.76171875,-7.8125
10,1734117570343.0625,-17.578125,-28.80859375,-28.80859375,-14.6484375
11,1734117570346.9688,-21.484375,-32.71484375,-31.73828125,-25.390625
0,1734117570350.875,-13.671875,-30.76171875,-37.109375,-23.92578125
1,1734117570354.7812,-5.37109375,-28.3203125,-39.0625,-23.92578125
2,1734117570358.6875,-14.16015625,-36.62109375,-33.69140625,-25.390625
3,1734117570362.5938,-32.71484375,-36.62109375,-25.390625,-21.484375
4,1734117570366.5,-33.69140625,-37.59765625,-14.6484375,-16.11328125
5,1734117570370.4062,-32.2265625,-41.015625,-14.6484375,-14.16015625
6,1734117570374.3125,-33.69140625,-36.62109375,-24.4140625,-18.06640625
7,1734117570378.2188,-37.109375,-31.73828125,-31.25,-22.94921875
8,1734117570382.125,-31.25,-30.76171875,-26.3671875,-11.23046875
9,1734117570386.0312,-29.296875,-33.203125,-28.3203125,-12.6953125
10,1734117570389.9375,-34.1796875,-29.78515625,-33.203125,-21.97265625
11,1734117570393.8438,-32.2265625,-27.34375,-24.4140625,-20.5078125
0,1734117570397.75,-29.296875,-32.71484375,-19.04296875,-19.53125
1,1734117570401.6562,-28.80859375,-39.0625,-18.5546875,-17.578125
2,1734117570405.5625,-21.484375,-33.69140625,-22.94921875,-22.4609375
3,1734117570409.4688,-18.06640625,-27.34375,-32.2265625,-24.4140625
4,1734117570413.375,-15.625,-30.2734375,-37.59765625,-25.87890625
5,1734117570417.2812,-18.06640625,-33.203125,-31.73828125,-26.85546875
6,1734117570421.1875,-40.0390625,-35.15625,-27.83203125,-21.97265625
7,1734117570425.0938,-46.38671875,-35.64453125,-28.80859375,-19.04296875
8,1734117570429,-41.9921875,-38.0859375,-23.92578125,-30.76171875
9,1734117570432.9062,-33.203125,-34.1796875,-25.87890625,-43.9453125
10,1734117570436.8125,-31.73828125,-27.34375,-32.2265625,-46.38671875
11,1734117570440.7188,-32.71484375,-29.296875,-34.66796875,-33.69140625
0,1734117570444.625,-18.06640625,-23.92578125,-30.2734375,-12.6953125
1,1734117570448.5312,-16.11328125,-23.92578125,-24.4140625,-0.9765625
2,1734117570452.4375,-19.04296875,-32.2265625,-23.92578125,3.41796875
3,1734117570456.3438,-9.27734375,-30.76171875,-29.296875,6.8359375
4,1734117570460.25,-15.13671875,-29.296875,-21.484375,3.41796875
5,1734117570464.1562,-26.3671875,-29.296875,-14.6484375,-2.44140625
6,1734117570468.0625,-24.90234375,-26.3671875,-23.4375,-5.37109375
7,1734117570471.9688,-32.71484375,-28.80859375,-20.5078125,0.9765625
8,1734117570475.875,-28.80859375,-28.3203125,-24.4140625,-7.32421875
9,1734117570479.7812,-24.4140625,-24.4140625,-30.2734375,-24.90234375
10,1734117570483.6875,-34.66796875,-30.76171875,-23.92578125,-28.3203125
11,1734117570487.5938,-41.50390625,-28.80859375,-27.34375,-32.2265625
0,1734117570491.5,-32.2265625,-20.01953125,-27.83203125,-29.78515625
1,1734117570495.4062,-33.69140625,-22.4609375,-23.92578125,-26.3671875
2,1734117570499.3125,-40.0390625,-33.203125,-25.390625,-21.484375
3,1734117570503.2188,-34.66796875,-35.15625,-25.390625,-7.32421875
4,1734117570507.125,-27.34375,-36.62109375,-28.80859375,-10.7421875
5,1734117570511.0312,-20.01953125,-30.76171875,-30.2734375,-15.625
6,1734117570514.9375,-14.6484375,-21.484375,-25.390625,-7.8125
7,1734117570518.8438,-12.20703125,-26.85546875,-28.80859375,-10.25390625
8,1734117570522.75,-10.7421875,-29.78515625,-27.83203125,-14.6484375
9,1734117570526.6562,-20.99609375,-25.87890625,-21.484375,-13.671875
10,1734117570530.5625,-22.94921875,-24.4140625,-19.04296875,-14.16015625
11,1734117570534.4688,-20.01953125,-30.76171875,-16.11328125,-11.23046875
0,1734117570538.375,-23.92578125,-31.73828125,-25.87890625,-10.7421875
1,1734117570542.2812,-24.90234375,-27.34375,-31.73828125,-16.11328125
2,1734117570546.1875,-14.6484375,-28.3203125,-22.94921875,-6.34765625
3,1734117570550.0938,-19.53125,-35.15625,-24.4140625,-10.25390625
4,1734117570554,-33.69140625,-41.015625,-21.484375,-21.97265625
5,1734117570557.9062,-28.80859375,-37.59765625,-11.23046875,-11.23046875
6,1734117570561.8125,-32.71484375,-39.0625,-12.20703125,-10.25390625
7,1734117570565.7188,-41.50390625,-35.15625,-24.4140625,-16.11328125
8,1734117570569.625,-38.0859375,-32.2265625,-29.296875,-23.4375
9,1734117570573.5312,-38.57421875,-35.64453125,-22.4609375,-21.484375
10,1734117570577.4375,-39.0625,-37.59765625,-15.13671875,-4.8828125
11,1734117570581.3438,-40.0390625,-40.0390625,-11.71875,-12.20703125
0,1734117570585.25,-41.9921875,-36.1328125,-15.625,-25.87890625
1,1734117570589.1562,-29.296875,-33.203125,-20.99609375,-21.97265625
2,1734117570593.0625,-22.94921875,-28.80859375,-20.01953125,-30.76171875
3,1734117570596.9688,-30.76171875,-28.3203125,-22.94921875,-34.1796875
4,1734117570600.875,-28.3203125,-31.73828125,-22.94921875,-26.3671875
5,1734117570604.7812,-31.25,-32.71484375,-16.11328125,-20.5078125
6,1734117570608.6875,-31.25,-33.69140625,-20.5078125,-3.41796875
7,1734117570612.5938,-15.13671875,-27.34375,-32.2265625,-5.859375
8,1734117570616.5,-4.8828125,-29.296875,-28.80859375,-9.765625
9,1734117570620.4062,-13.18359375,-29.78515625,-26.85546875,-13.18359375
10,1734117570624.3125,-23.4375,-28.3203125,-33.203125,-15.13671875
11,1734117570628.2188,-26.3671875,-32.2265625,-35.64453125,-29.78515625
0,1734117570632.125,-26.3671875,-31.25,-32.2265625,-41.9921875
1,1734117570636.0312,-24.4140625,-32.2265625,-22.4609375,-37.59765625
2,1734117570639.9375,-20.01953125,-29.296875,-12.20703125,-33.203125
3,1734117570643.8438,-15.625,-26.85546875,-13.671875,-25.390625
4,1734117570647.75,-7.32421875,-26.85546875,-25.87890625,-17.578125
5,1734117570651.6562,-3.90625,-29.78515625,-26.3671875,-16.11328125
6,1734117570655.5625,-18.5546875,-35.64453125,-25.87890625,-16.11328125
7,1734117570659.4688,-33.203125,-35.15625,-31.73828125,-25.87890625
8,1734117570663.375,-34.1796875,-29.296875,-30.2734375,-33.203125
9,1734117570667.2812,-27.83203125,-26.3671875,-32.2265625,-25.87890625
10,1734117570671.1875,-27.83203125,-24.90234375,-28.3203125,-24.90234375
11,1734117570675.0938,-21.484375,-24.4140625,-24.90234375,-24.90234375
0,1734117570679,-9.27734375,-26.85546875,-29.78515625,-21.484375
1,1734117570682.9062,-7.32421875,-26.85546875,-20.5078125,-12.6953125
2,1734117570686.8125,-1.953125,-23.4375,-16.6015625,0.9765625
3,1734117570690.7188,0.9765625,-22.94921875,-22.4609375,2.9296875
4,1734117570694.625,1.953125,-23.4375,-27.34375,-9.27734375
5,1734117570698.5312,-6.8359375,-27.34375,-30.2734375,-15.13671875
6,1734117570702.4375,-14.6484375,-36.1328125,-28.3203125,-6.34765625
7,1734117570706.3438,-12.6953125,-38.0859375,-25.87890625,-12.6953125
8,1734117570710.25,-10.7421875,-33.69140625,-24.90234375,-17.578125
9,1734117570714.1562,-12.6953125,-34.1796875,-25.390625,-2.9296875
10,1734117570718.0625,-15.625,-34.1796875,-23.92578125,-12.6953125
11,1734117570721.9688,-16.6015625,-35.15625,-30.2734375,-36.62109375
0,1734117570725.875,-13.671875,-35.15625,-30.2734375,-32.2265625
1,1734117570729.7812,-18.5546875,-31.73828125,-24.4140625,-20.01953125
2,1734117570733.6875,-15.13671875,-27.83203125,-25.390625,-22.4609375
3,1734117570737.5938,-14.6484375,-24.4140625,-22.94921875,-20.99609375
4,1734117570741.5,-16.6015625,-22.4609375,-18.5546875,-13.671875
5,1734117570745.4062,-14.16015625,-25.87890625,-20.5078125,-17.578125
6,1734117570749.3125,-18.5546875,-34.66796875,-27.83203125,-25.390625
7,1734117570753.2188,-24.4140625,-38.0859375,-38.57421875,-24.90234375
8,1734117570757.125,-25.87890625,-38.0859375,-41.9921875,-14.6484375
9,1734117570761.0312,-28.80859375,-36.62109375,-38.57421875,-15.13671875
10,1734117570764.9375,-23.4375,-31.73828125,-29.78515625,-30.76171875
11,1734117570768.8438,-23.92578125,-35.15625,-20.5078125,-28.80859375
0,1734117570772.75,-33.203125,-35.64453125,-17.08984375,-25.390625
1,1734117570776.6562,-31.25,-31.25,-12.6953125,-31.25
2,1734117570780.5625,-23.4375,-29.78515625,-13.18359375,-31.73828125
3,1734117570784.4688,-18.5546875,-31.25,-20.01953125,-21.97265625
4,1734117570788.375,-17.578125,-41.015625,-30.2734375,-18.5546875
5,1734117570792.2812,-18.06640625,-41.015625,-40.0390625,-19.53125
6,1734117570796.1875,-11.71875,-34.1796875,-36.1328125,-11.71875
7,1734117570800.0938,-4.8828125,-32.71484375,-29.296875,-4.8828125
8,1734117570804,-7.32421875,-27.83203125,-22.94921875,-0.9765625
9,1734117570807.9062,-11.23046875,-33.69140625,-24.4140625,-8.7890625
10,1734117570811.8125,-11.23046875,-39.55078125,-28.3203125,-15.13671875
11,1734117570815.7188,-16.11328125,-35.15625,-27.34375,-17.08984375
0,1734117570819.625,-22.94921875,-35.15625,-25.390625,-27.34375
1,1734117570823.5312,-22.94921875,-33.203125,-29.296875,-31.73828125
2,1734117570827.4375,-20.01953125,-28.3203125,-35.64453125,-29.78515625
3,1734117570831.3438,-8.30078125,-24.90234375,-29.296875,-25.390625
4,1734117570835.25,8.30078125,-22.4609375,-22.94921875,-13.671875
5,1734117570839.1562,-5.37109375,-26.85546875,-29.78515625,-12.20703125
6,1734117570843.0625,-12.20703125,-30.2734375,-33.69140625,-24.4140625
7,1734117570846.9688,-1.46484375,-26.85546875,-28.3203125,-15.13671875
8,1734117570850.875,-6.34765625,-27.34375,-26.3671875,-9.765625
9,1734117570854.7812,-9.765625,-26.3671875,-24.90234375,-23.92578125
10,1734117570858.6875,-6.34765625,-23.4375,-19.04296875,-24.4140625
11,1734117570862.5938,-14.16015625,-24.90234375,-24.90234375,-27.83203125
0,1734117570866.5,-11.23046875,-28.3203125,-31.25,-28.3203125
1,1734117570870.4062,-2.44140625,-30.76171875,-30.76171875,-17.578125
2,1734117570874.3125,-11.23046875,-27.83203125,-29.296875,-13.18359375
3,1734117570878.2188,-11.71875,-25.390625,-32.2265625,-18.5546875
4,1734117570882.125,-6.8359375,-26.85546875,-34.1796875,-21.97265625
5,1734117570886.0312,-9.765625,-25.87890625,-27.83203125,-12.6953125
6,1734117570889.9375,-13.18359375,-26.85546875,-27.83203125,-13.671875
7,1734117570893.8438,-15.625,-28.3203125,-25.390625,-15.625
8,1734117570897.75,-13.671875,-27.34375,-26.85546875,-15.625
9,1734117570901.6562,-17.578125,-29.296875,-30.2734375,-20.5078125
10,1734117570905.5625,-10.7421875,-25.87890625,-26.85546875,-16.11328125
11,1734117570909.4688,-23.92578125,-27.83203125,-24.4140625,-17.08984375
0,1734117570913.375,-40.52734375,-33.69140625,-26.3671875,-17.578125
1,1734117570917.2812,-24.90234375,-29.296875,-25.390625,-15.13671875
2,1734117570921.1875,-23.4375,-27.34375,-30.76171875,-18.5546875
3,1734117570925.0938,-34.1796875,-30.2734375,-34.66796875,-20.5078125
4,1734117570929,-29.296875,-33.203125,-21.97265625,-16.6015625
5,1734117570932.9062,-20.01953125,-34.1796875,-17.08984375,-7.8125
6,1734117570936.8125,-20.01953125,-27.34375,-22.94921875,-1.953125
7,1734117570940.7188,-26.3671875,-24.4140625,-30.76171875,-18.06640625
8,1734117570944.625,-18.5546875,-24.90234375,-36.62109375,-29.296875
9,1734117570948.5312,-13.671875,-28.3203125,-37.59765625,-22.94921875
10,1734117570952.4375,-21.97265625,-32.71484375,-36.1328125,-26.85546875
11,1734117570956.3438,-28.80859375,-29.78515625,-33.203125,-30.2734375
0,1734117570960.25,-34.1796875,-29.296875,-28.3203125,-30.76171875
1,1734117570964.1562,-26.3671875,-28.3203125,-15.625,-26.3671875
2,1734117570968.0625,-23.92578125,-26.85546875,-22.4609375,-14.16015625
3,1734117570971.9688,-18.5546875,-29.296875,-32.2265625,-12.6953125
4,1734117570975.875,-14.6484375,-28.80859375,-21.97265625,-13.18359375
5,1734117570979.7812,-27.83203125,-28.3203125,-17.578125,0.48828125
6,1734117570983.6875,-26.3671875,-21.97265625,-16.11328125,-0.9765625
7,1734117570987.5938,-15.625,-19.04296875,-18.5546875,-15.13671875
8,1734117570991.5,-20.99609375,-28.3203125,-28.80859375,-21.484375
9,1734117570995.4062,-26.3671875,-31.25,-29.78515625,-21.97265625
10,1734117570999.3125,-23.4375,-30.2734375,-25.87890625,-21.484375
11,1734117571003.2188,-19.53125,-25.87890625,-26.85546875,-27.34375
0,1734117571007.125,-5.37109375,-26.3671875,-27.83203125,-30.2734375
1,1734117571011.0312,4.8828125,-30.2734375,-28.3203125,-29.296875
2,1734117571014.9375,0.48828125,-33.203125,-30.76171875,-27.34375
3,1734117571018.8438,1.46484375,-29.78515625,-35.15625,-31.73828125
4,1734117571022.75,-4.39453125,-24.90234375,-37.59765625,-29.296875
5,1734117571026.6562,-8.7890625,-26.3671875,-28.3203125,-10.25390625
6,1734117571030.5625,-15.13671875,-23.92578125,-20.01953125,-5.859375
7,1734117571034.4688,-29.296875,-32.71484375,-22.4609375,-3.41796875
8,1734117571038.375,-32.71484375,-35.64453125,-24.4140625,6.8359375
9,1734117571042.2812,-31.73828125,-30.2734375,-17.08984375,2.9296875
10,1734117571046.1875,-21.484375,-29.296875,-19.53125,-10.25390625
11,1734117571050.0938,-10.25390625,-30.76171875,-36.62109375,-29.296875
0,1734117571054,-16.6015625,-31.73828125,-35.15625,-23.92578125
1,1734117571057.9062,-16.11328125,-31.73828125,-27.83203125,-15.625
2,1734117571061.8125,-13.671875,-36.1328125,-33.69140625,-24.4140625
3,1734117571065.7188,-13.671875,-27.34375,-36.1328125,-19.53125
4,1734117571069.625,-11.23046875,-22.4609375,-29.78515625,-26.3671875
5,1734117571073.5312,-15.13671875,-27.83203125,-27.34375,-41.9921875
6,1734117571077.4375,-9.765625,-26.85546875,-29.78515625,-34.1796875
7,1734117571081.3438,-8.7890625,-25.390625,-31.25,-29.296875
8,1734117571085.25,-20.5078125,-24.90234375,-28.3203125,-29.296875
9,1734117571089.1562,-22.4609375,-31.25,-26.3671875,-19.04296875
10,1734117571093.0625,-29.78515625,-34.66796875,-25.390625,-31.73828125
11,1734117571096.9688,-25.390625,-24.90234375,-24.4140625,-42.48046875
0,1734117571100.875,-15.625,-20.99609375,-28.3203125,-35.15625
1,1734117571104.7812,-16.11328125,-23.92578125,-30.76171875,-35.15625
2,1734117571108.6875,-7.32421875,-24.4140625,-29.78515625,-21.97265625
3,1734117571112.5938,-11.71875,-31.25,-31.73828125,-11.23046875
4,1734117571116.5,-8.30078125,-35.64453125,-36.1328125,-10.25390625
5,1734117571120.4062,0,-27.83203125,-31.25,-13.671875
6,1734117571124.3125,-12.20703125,-22.4609375,-26.3671875,-17.578125
7,1734117571128.2188,-10.25390625,-23.4375,-33.203125,-19.04296875
8,1734117571132.125,-12.20703125,-25.87890625,-38.0859375,-10.25390625
9,1734117571136.0312,-25.87890625,-32.71484375,-40.0390625,-9.765625
10,1734117571139.9375,-19.53125,-31.25,-35.64453125,-23.92578125
11,1734117571143.8438,-13.18359375,-28.3203125,-27.34375,-22.4609375
0,1734117571147.75,-13.18359375,-29.296875,-25.390625,-19.04296875
1,1734117571151.6562,-14.6484375,-25.390625,-33.203125,-20.5078125
2,1734117571155.5625,-28.80859375,-21.97265625,-41.9921875,-19.53125
3,1734117571159.4688,-30.2734375,-26.3671875,-36.1328125,-21.484375
4,1734117571163.375,-21.97265625,-30.2734375,-32.71484375,-32.2265625
5,1734117571167.2812,-21.97265625,-30.2734375,-30.2734375,-19.53125
6,1734117571171.1875,-20.5078125,-25.87890625,-30.2734375,-16.6015625
7,1734117571175.0938,-20.99609375,-23.4375,-33.203125,-28.80859375
8,1734117571179,-20.01953125,-23.92578125,-25.390625,-23.4375
9,1734117571182.9062,-18.5546875,-18.06640625,-26.3671875,-19.04296875
10,1734117571186.8125,-21.484375,-15.13671875,-32.2265625,-28.3203125
11,1734117571190.7188,-18.06640625,-21.97265625,-22.94921875,-30.76171875
0,1734117571194.625,-17.578125,-21.97265625,-19.53125,-15.13671875
1,1734117571198.5312,-16.6015625,-25.390625,-27.34375,-12.20703125
2,1734117571202.4375,-14.6484375,-33.69140625,-28.80859375,-25.87890625
3,1734117571206.3438,-15.13671875,-31.73828125,-26.85546875,-26.3671875
4,1734117571210.25,-7.32421875,-30.76171875,-20.5078125,-19.53125
5,1734117571214.1562,-4.39453125,-33.203125,-17.08984375,-20.01953125
6,1734117571218.0625,-2.9296875,-31.73828125,-20.99609375,-29.78515625
7,1734117571221.9688,1.46484375,-23.4375,-25.390625,-18.06640625
8,1734117571225.875,-1.46484375,-20.01953125,-23.92578125,-8.7890625
9,1734117571229.7812,-7.8125,-20.5078125,-26.3671875,-19.53125
10,1734117571233.6875,-14.6484375,-20.99609375,-26.3671875,-21.484375
11,1734117571237.5938,-20.99609375,-27.83203125,-20.5078125,-20.99609375
0,1734117571241.5,-22.94921875,-30.2734375,-22.4609375,-23.4375
1,1734117571245.4062,-25.87890625,-23.92578125,-23.92578125,-25.87890625
2,1734117571249.3125,-27.83203125,-21.484375,-26.85546875,-22.4609375
3,1734117571253.2188,-28.3203125,-27.83203125,-23.4375,-21.484375
4,1734117571257.125,-32.71484375,-33.203125,-23.4375,-23.4375
5,1734117571261.0312,-31.25,-27.34375,-25.87890625,-23.4375
6,1734117571264.9375,-18.5546875,-20.5078125,-24.90234375,-25.87890625
7,1734117571268.8438,-9.765625,-24.4140625,-22.4609375,-20.99609375
8,1734117571272.75,-25.390625,-29.78515625,-16.6015625,-26.3671875
9,1734117571276.6562,-34.66796875,-24.4140625,-19.04296875,-32.71484375
10,1734117571280.5625,-34.66796875,-20.99609375,-20.01953125,-25.87890625
11,1734117571284.4688,-30.2734375,-23.92578125,-23.92578125,-25.390625
0,1734117571288.375,-22.4609375,-25.390625,-29.78515625,-32.71484375
1,1734117571292.2812,-23.4375,-22.94921875,-28.80859375,-29.78515625
2,1734117571296.1875,-30.2734375,-24.4140625,-26.85546875,-13.18359375
3,1734117571300.0938,-13.18359375,-26.3671875,-27.34375,-4.39453125
4,1734117571304,-12.20703125,-22.4609375,-23.4375,-9.27734375
5,1734117571307.9062,-30.2734375,-17.578125,-20.01953125,-8.7890625
6,1734117571311.8125,-28.3203125,-20.99609375,-20.99609375,-4.8828125
7,1734117571315.7188,-23.4375,-25.390625,-23.4375,-1.953125
8,1734117571319.625,-24.4140625,-28.3203125,-27.34375,-6.34765625
9,1734117571323.5312,-35.15625,-25.87890625,-35.64453125,-15.13671875
10,1734117571327.4375,-35.15625,-23.4375,-31.25,-14.6484375
11,1734117571331.3438,-26.3671875,-26.3671875,-22.94921875,-17.578125
0,1734117571335.25,-27.83203125,-31.25,-28.3203125,-21.97265625
1,1734117571339.1562,-30.2734375,-29.78515625,-33.203125,-31.25
2,1734117571343.0625,-43.9453125,-28.80859375,-30.76171875,-34.1796875
3,1734117571346.9688,-47.36328125,-33.203125,-23.92578125,-29.78515625
4,1734117571350.875,-39.0625,-33.69140625,-25.87890625,-37.109375
5,1734117571354.7812,-40.0390625,-32.71484375,-28.80859375,-30.76171875
6,1734117571358.6875,-41.50390625,-27.83203125,-22.94921875,-23.92578125
7,1734117571362.5938,-38.57421875,-30.76171875,-19.04296875,-35.64453125
8,1734117571366.5,-36.1328125,-32.71484375,-25.390625,-37.109375
9,1734117571370.4062,-23.92578125,-15.13671875,-27.34375,-27.83203125
10,1734117571374.3125,-29.296875,-12.6953125,-22.4609375,-21.484375
