index,unixTimestamp,TP9,AF7,AF8,TP10
0,1734117394804,0,0,0,-0.48828125
1,1734117394807.9062,0,0,-0.48828125,0
2,1734117394811.8125,0,-1.953125,-0.48828125,0
3,1734117394815.7188,0,3.41796875,-0.48828125,-1.46484375
4,1734117394819.625,0,-20.01953125,-7.32421875,8.30078125
5,1734117394823.5312,6.8359375,-52.734375,-36.62109375,7.32421875
6,1734117394827.4375,-2.44140625,-56.15234375,-59.08203125,2.44140625
7,1734117394831.3438,-7.32421875,-52.734375,-52.24609375,2.9296875
8,1734117394835.25,14.6484375,-40.52734375,-47.36328125,0.48828125
9,1734117394839.1562,20.5078125,-36.1328125,-46.38671875,25.87890625
10,1734117394843.0625,20.5078125,-33.203125,-50.78125,36.1328125
11,1734117394846.9688,25.390625,-32.71484375,-52.24609375,26.3671875
0,1734117394850.875,14.16015625,-37.109375,-52.24609375,26.3671875
1,1734117394854.7812,3.41796875,-38.57421875,-52.24609375,20.01953125
2,1734117394858.6875,15.625,-39.0625,-49.8046875,13.18359375
3,1734117394862.5938,3.90625,-49.31640625,-43.9453125,18.06640625
4,1734117394866.5,-9.765625,-47.8515625,-48.828125,19.04296875
5,1734117394870.4062,4.39453125,-31.73828125,-50.29296875,1.46484375
6,1734117394874.3125,2.9296875,-30.76171875,-49.31640625,2.44140625
7,1734117394878.2188,7.32421875,-40.52734375,-52.24609375,6.34765625
8,1734117394882.125,5.37109375,-40.52734375,-45.41015625,16.6015625
9,1734117394886.0312,-6.34765625,-39.0625,-44.43359375,17.578125
10,1734117394889.9375,-2.9296875,-42.48046875,-50.78125,8.30078125
11,1734117394893.8438,7.8125,-43.9453125,-49.8046875,18.06640625
0,1734117394897.75,6.34765625,-53.7109375,-43.9453125,25.390625
1,1734117394901.6562,-6.8359375,-62.5,-43.45703125,29.296875
2,1734117394905.5625,-4.8828125,-51.26953125,-38.57421875,31.25
3,1734117394909.4688,-5.37109375,-50.78125,-34.1796875,26.3671875
4,1734117394913.375,-3.90625,-49.8046875,-39.0625,20.99609375
5,1734117394917.2812,8.30078125,-48.33984375,-44.43359375,24.90234375
6,1734117394921.1875,10.25390625,-48.828125,-45.41015625,27.34375
7,1734117394925.0938,2.44140625,-41.50390625,-42.48046875,34.66796875
8,1734117394929,9.27734375,-41.50390625,-43.45703125,39.55078125
9,1734117394932.9062,5.37109375,-51.7578125,-48.828125,21.97265625
10,1734117394936.8125,4.39453125,-53.22265625,-52.24609375,-7.32421875
11,1734117394940.7188,7.8125,-49.31640625,-53.7109375,-6.34765625
0,1734117394944.625,0,-51.7578125,-49.8046875,6.8359375
1,1734117394948.5312,-1.46484375,-53.7109375,-48.828125,2.9296875
2,1734117394952.4375,10.7421875,-52.734375,-50.78125,16.11328125
3,1734117394956.3438,0,-42.48046875,-46.875,21.484375
4,1734117394960.25,-11.23046875,-41.50390625,-46.38671875,4.8828125
5,1734117394964.1562,-15.13671875,-57.12890625,-48.828125,6.8359375
6,1734117394968.0625,-1.953125,-55.17578125,-51.7578125,3.90625
7,1734117394971.9688,11.23046875,-44.921875,-49.8046875,10.7421875
8,1734117394975.875,-4.39453125,-41.9921875,-52.24609375,15.13671875
9,1734117394979.7812,1.46484375,-40.52734375,-54.6875,-3.90625
10,1734117394983.6875,13.18359375,-39.55078125,-53.22265625,-3.41796875
11,1734117394987.5938,18.5546875,-37.59765625,-55.17578125,-1.46484375
0,1734117394991.5,15.625,-42.96875,-52.24609375,-13.18359375
1,1734117394995.4062,1.46484375,-50.29296875,-52.734375,-20.01953125
2,1734117394999.3125,1.953125,-62.5,-53.7109375,-8.30078125
3,1734117395003.2188,10.25390625,-65.91796875,-52.24609375,1.46484375
4,1734117395007.125,2.9296875,-53.22265625,-49.31640625,0.9765625
5,1734117395011.0312,-7.32421875,-45.8984375,-48.33984375,6.8359375
6,1734117395014.9375,-8.7890625,-42.48046875,-49.31640625,7.8125
7,1734117395018.8438,-6.8359375,-43.45703125,-49.31640625,10.7421875
8,1734117395022.75,-10.25390625,-45.41015625,-49.31640625,-2.9296875
9,1734117395026.6562,-4.39453125,-43.45703125,-48.828125,3.90625
10,1734117395030.5625,-3.90625,-38.57421875,-51.7578125,21.484375
11,1734117395034.4688,-8.30078125,-41.50390625,-54.19921875,19.53125
0,1734117395038.375,-11.71875,-43.9453125,-50.78125,7.8125
1,1734117395042.2812,-15.13671875,-44.921875,-46.875,-0.48828125
2,1734117395046.1875,-10.25390625,-47.8515625,-45.41015625,-0.48828125
3,1734117395050.0938,-20.01953125,-52.734375,-50.78125,-6.8359375
4,1734117395054,-20.99609375,-62.01171875,-53.22265625,-16.11328125
5,1734117395057.9062,-25.390625,-57.12890625,-52.734375,-27.83203125
6,1734117395061.8125,-17.08984375,-44.921875,-51.26953125,-2.44140625
7,1734117395065.7188,-6.34765625,-38.0859375,-52.24609375,16.6015625
8,1734117395069.625,-14.6484375,-40.0390625,-56.640625,5.37109375
9,1734117395073.5312,-4.39453125,-46.38671875,-54.19921875,8.7890625
10,1734117395077.4375,0.48828125,-43.45703125,-48.33984375,7.8125
11,1734117395081.3438,-0.9765625,-44.43359375,-46.38671875,6.34765625
0,1734117395085.25,-8.7890625,-51.26953125,-47.8515625,-2.9296875
1,1734117395089.1562,-8.7890625,-58.59375,-47.36328125,-13.18359375
2,1734117395093.0625,-7.32421875,-68.359375,-44.921875,-17.08984375
3,1734117395096.9688,-9.27734375,-63.4765625,-47.8515625,2.9296875
4,1734117395100.875,-11.23046875,-44.43359375,-46.875,13.671875
5,1734117395104.7812,-13.671875,-41.015625,-41.50390625,9.765625
6,1734117395108.6875,-2.44140625,-43.45703125,-40.0390625,16.6015625
7,1734117395112.5938,-1.953125,-45.8984375,-43.9453125,17.08984375
8,1734117395116.5,-8.30078125,-48.33984375,-48.33984375,15.625
9,1734117395120.4062,5.859375,-44.43359375,-45.41015625,19.53125
10,1734117395124.3125,9.765625,-38.57421875,-43.45703125,25.87890625
11,1734117395128.2188,-8.30078125,-47.8515625,-48.33984375,7.8125
0,1734117395132.125,-5.37109375,-57.12890625,-44.921875,-1.953125
1,1734117395136.0312,-3.90625,-49.8046875,-40.52734375,15.625
2,1734117395139.9375,-1.46484375,-46.38671875,-42.96875,10.7421875
3,1734117395143.8438,1.953125,-44.921875,-48.33984375,-1.953125
4,1734117395147.75,-2.9296875,-38.57421875,-46.38671875,1.46484375
5,1734117395151.6562,6.8359375,-37.59765625,-40.0390625,16.11328125
6,1734117395155.5625,7.32421875,-42.96875,-43.9453125,14.6484375
7,1734117395159.4688,-6.8359375,-44.43359375,-47.8515625,10.7421875
8,1734117395163.375,-4.39453125,-41.015625,-42.96875,6.8359375
9,1734117395167.2812,12.20703125,-39.0625,-40.52734375,10.25390625
10,1734117395171.1875,4.8828125,-44.921875,-43.9453125,13.18359375
11,1734117395175.0938,-0.48828125,-47.36328125,-41.015625,2.9296875
0,1734117395179,-3.41796875,-37.59765625,-41.50390625,0
1,1734117395182.9062,-2.9296875,-36.62109375,-42.48046875,8.7890625
2,1734117395186.8125,-1.953125,-34.66796875,-45.41015625,2.9296875
3,1734117395190.7188,-2.9296875,-35.15625,-46.38671875,-9.765625
4,1734117395194.625,4.39453125,-39.55078125,-42.48046875,-8.30078125
5,1734117395198.5312,7.8125,-44.921875,-43.9453125,0
6,1734117395202.4375,-12.6953125,-37.59765625,-47.8515625,-1.953125
7,1734117395206.3438,-19.53125,-24.90234375,-43.45703125,-16.6015625
8,1734117395210.25,-8.7890625,-22.94921875,-37.59765625,-6.34765625
9,1734117395214.1562,-16.6015625,-26.3671875,-34.1796875,19.04296875
10,1734117395218.0625,-18.5546875,-41.9921875,-41.015625,-2.44140625
11,1734117395221.9688,-29.78515625,-48.828125,-48.33984375,-27.34375
0,1734117395225.875,-21.484375,-36.62109375,-41.015625,-11.71875
1,1734117395229.7812,-20.5078125,-33.69140625,-41.9921875,6.34765625
2,1734117395233.6875,-28.3203125,-42.96875,-46.875,-12.6953125
3,1734117395237.5938,-17.578125,-38.0859375,-45.41015625,-30.76171875
4,1734117395241.5,-11.23046875,-30.76171875,-46.38671875,-22.94921875
5,1734117395245.4062,-12.6953125,-28.3203125,-41.9921875,-23.4375
6,1734117395249.3125,-30.2734375,-29.296875,-41.015625,-17.578125
7,1734117395253.2188,-28.3203125,-31.25,-42.48046875,-12.6953125
8,1734117395257.125,-13.18359375,-29.296875,-38.0859375,-8.7890625
9,1734117395261.0312,-19.53125,-34.1796875,-36.1328125,-5.37109375
10,1734117395264.9375,-10.7421875,-40.52734375,-36.62109375,-10.25390625
11,1734117395268.8438,-5.37109375,-50.29296875,-41.015625,-7.8125
0,1734117395272.75,-26.85546875,-50.78125,-47.36328125,1.46484375
1,1734117395276.6562,-25.87890625,-39.0625,-44.43359375,8.7890625
2,1734117395280.5625,1.953125,-33.69140625,-44.43359375,-2.9296875
3,1734117395284.4688,-6.34765625,-33.203125,-44.43359375,-8.7890625
4,1734117395288.375,-31.25,-35.15625,-40.52734375,1.46484375
5,1734117395292.2812,-21.484375,-43.45703125,-39.0625,-0.9765625
6,1734117395296.1875,-11.23046875,-44.921875,-37.59765625,-1.46484375
7,1734117395300.0938,-17.578125,-42.96875,-38.0859375,-7.32421875
8,1734117395304,-6.8359375,-41.9921875,-42.48046875,-14.16015625
9,1734117395307.9062,-13.18359375,-40.0390625,-46.38671875,-2.9296875
10,1734117395311.8125,-11.23046875,-43.9453125,-45.41015625,2.44140625
11,1734117395315.7188,7.8125,-43.45703125,-42.48046875,3.90625
0,1734117395319.625,4.8828125,-41.9921875,-43.9453125,18.5546875
1,1734117395323.5312,7.8125,-51.26953125,-44.921875,30.2734375
2,1734117395327.4375,19.04296875,-50.78125,-42.48046875,28.3203125
3,1734117395331.3438,17.08984375,-37.109375,-44.43359375,18.06640625
4,1734117395335.25,14.16015625,-33.69140625,-44.921875,11.71875
5,1734117395339.1562,14.6484375,-39.0625,-44.43359375,14.16015625
6,1734117395343.0625,19.04296875,-43.45703125,-45.8984375,14.6484375
7,1734117395346.9688,9.27734375,-41.9921875,-44.43359375,13.18359375
8,1734117395350.875,7.8125,-45.8984375,-44.43359375,14.16015625
9,1734117395354.7812,18.06640625,-48.828125,-41.9921875,12.6953125
10,1734117395358.6875,19.53125,-42.96875,-41.50390625,16.11328125
11,1734117395362.5938,26.3671875,-41.9921875,-42.48046875,7.8125
0,1734117395366.5,21.97265625,-50.78125,-43.9453125,10.7421875
1,1734117395370.4062,15.625,-54.19921875,-48.828125,29.296875
2,1734117395374.3125,19.04296875,-39.55078125,-53.22265625,12.6953125
3,1734117395378.2188,21.484375,-34.1796875,-51.26953125,1.46484375
4,1734117395382.125,22.4609375,-45.41015625,-41.50390625,22.4609375
5,1734117395386.0312,23.92578125,-48.828125,-42.96875,20.01953125
6,1734117395389.9375,20.99609375,-41.9921875,-46.38671875,22.94921875
7,1734117395393.8438,23.4375,-38.57421875,-38.57421875,31.73828125
8,1734117395397.75,18.06640625,-49.8046875,-41.015625,25.390625
9,1734117395401.6562,14.6484375,-59.08203125,-46.875,28.3203125
10,1734117395405.5625,27.83203125,-46.38671875,-44.43359375,34.66796875
11,1734117395409.4688,19.04296875,-34.66796875,-42.48046875,25.390625
0,1734117395413.375,-3.41796875,-35.64453125,-48.33984375,0.48828125
1,1734117395417.2812,-2.44140625,-35.64453125,-56.15234375,6.34765625
2,1734117395421.1875,11.71875,-37.59765625,-54.19921875,16.6015625
3,1734117395425.0938,15.625,-42.96875,-52.734375,11.23046875
4,1734117395429,13.18359375,-42.96875,-54.19921875,20.99609375
5,1734117395432.9062,23.92578125,-35.15625,-53.22265625,24.4140625
6,1734117395436.8125,15.625,-30.2734375,-48.828125,23.4375
7,1734117395440.7188,0,-45.8984375,-52.734375,19.04296875
8,1734117395444.625,0.9765625,-49.31640625,-53.7109375,0
9,1734117395448.5312,0.9765625,-38.57421875,-51.7578125,-4.8828125
10,1734117395452.4375,-0.48828125,-37.109375,-54.6875,20.99609375
11,1734117395456.3438,-9.765625,-39.0625,-52.734375,6.8359375
0,1734117395460.25,-1.953125,-39.0625,-45.8984375,-0.48828125
1,1734117395464.1562,7.32421875,-38.57421875,-43.45703125,21.97265625
2,1734117395468.0625,-1.46484375,-37.109375,-48.33984375,28.80859375
3,1734117395471.9688,-6.8359375,-46.38671875,-50.78125,26.85546875
4,1734117395475.875,-3.90625,-52.24609375,-46.875,18.5546875
5,1734117395479.7812,10.25390625,-40.52734375,-48.33984375,16.6015625
6,1734117395483.6875,11.71875,-37.59765625,-57.6171875,3.41796875
7,1734117395487.5938,0.9765625,-37.109375,-53.7109375,3.41796875
8,1734117395491.5,4.39453125,-39.0625,-48.33984375,4.8828125
9,1734117395495.4062,-7.32421875,-43.9453125,-49.8046875,-3.90625
10,1734117395499.3125,-15.13671875,-44.43359375,-47.8515625,3.41796875
11,1734117395503.2188,-8.30078125,-56.15234375,-50.29296875,-12.20703125
0,1734117395507.125,-9.27734375,-66.89453125,-52.734375,-15.13671875
1,1734117395511.0312,-11.23046875,-53.22265625,-47.8515625,-4.39453125
2,1734117395514.9375,-5.859375,-43.45703125,-51.7578125,3.90625
3,1734117395518.8438,-1.46484375,-42.48046875,-56.15234375,1.953125
4,1734117395522.75,-0.48828125,-44.921875,-53.7109375,9.765625
5,1734117395526.6562,-13.18359375,-46.38671875,-52.24609375,20.01953125
6,1734117395530.5625,-20.5078125,-44.43359375,-53.22265625,-19.04296875
7,1734117395534.4688,-8.30078125,-50.29296875,-54.19921875,-31.25
8,1734117395538.375,-0.48828125,-46.875,-53.7109375,9.765625
9,1734117395542.2812,-10.25390625,-46.38671875,-50.29296875,19.53125
10,1734117395546.1875,-20.01953125,-49.8046875,-50.78125,-8.30078125
11,1734117395550.0938,-18.06640625,-49.8046875,-55.17578125,-16.6015625
0,1734117395554,-6.34765625,-50.78125,-57.6171875,-1.953125
1,1734117395557.9062,-19.04296875,-51.7578125,-57.6171875,-9.27734375
2,1734117395561.8125,-20.01953125,-54.19921875,-52.24609375,-9.27734375
3,1734117395565.7188,-12.20703125,-61.03515625,-52.734375,-1.46484375
4,1734117395569.625,-18.5546875,-50.29296875,-46.875,-6.34765625
5,1734117395573.5312,-17.08984375,-45.41015625,-46.38671875,-11.23046875
6,1734117395577.4375,-24.90234375,-50.29296875,-57.12890625,-15.13671875
7,1734117395581.3438,-29.296875,-55.17578125,-52.734375,-15.625
8,1734117395585.25,-26.85546875,-56.15234375,-45.41015625,-9.27734375
9,1734117395589.1562,-34.1796875,-47.8515625,-38.57421875,-15.13671875
10,1734117395593.0625,-30.2734375,-51.7578125,-39.0625,-21.484375
11,1734117395596.9688,-20.5078125,-57.6171875,-44.921875,1.46484375
0,1734117395600.875,-27.34375,-52.734375,-43.9453125,0.9765625
1,1734117395604.7812,-8.7890625,-53.22265625,-42.48046875,0.9765625
2,1734117395608.6875,-4.8828125,-48.33984375,-47.36328125,4.8828125
3,1734117395612.5938,-17.578125,-35.64453125,-53.7109375,1.46484375
4,1734117395616.5,-13.18359375,-36.1328125,-55.17578125,-19.04296875
5,1734117395620.4062,-21.97265625,-43.45703125,-53.22265625,-30.76171875
6,1734117395624.3125,-21.484375,-54.19921875,-51.7578125,-15.13671875
7,1734117395628.2188,-13.671875,-45.41015625,-52.734375,-14.6484375
8,1734117395632.125,-24.4140625,-36.62109375,-47.36328125,-20.99609375
9,1734117395636.0312,-29.78515625,-45.41015625,-48.33984375,-25.390625
10,1734117395639.9375,-32.2265625,-49.8046875,-57.6171875,-20.99609375
11,1734117395643.8438,-34.66796875,-42.48046875,-57.6171875,-21.97265625
0,1734117395647.75,-24.90234375,-41.9921875,-57.6171875,-25.87890625
1,1734117395651.6562,-12.6953125,-41.015625,-56.15234375,-18.5546875
2,1734117395655.5625,-12.6953125,-44.921875,-52.734375,-10.25390625
3,1734117395659.4688,-10.25390625,-46.875,-46.875,-20.5078125
4,1734117395663.375,-10.25390625,-43.9453125,-45.41015625,-21.97265625
5,1734117395667.2812,-5.37109375,-47.36328125,-47.36328125,-2.44140625
6,1734117395671.1875,2.44140625,-46.38671875,-49.31640625,9.27734375
7,1734117395675.0938,-11.71875,-58.59375,-50.78125,2.44140625
8,1734117395679,-12.20703125,-50.78125,-51.7578125,-9.27734375
9,1734117395682.9062,-12.20703125,-38.57421875,-50.29296875,-6.8359375
10,1734117395686.8125,-23.92578125,-44.43359375,-51.26953125,-15.625
11,1734117395690.7188,-6.34765625,-40.52734375,-57.6171875,-7.8125
0,1734117395694.625,6.34765625,-36.1328125,-53.7109375,12.20703125
1,1734117395698.5312,-5.37109375,-40.52734375,-51.7578125,20.01953125
2,1734117395702.4375,11.71875,-55.17578125,-47.8515625,17.08984375
3,1734117395706.3438,21.97265625,-51.26953125,-43.9453125,25.390625
4,1734117395710.25,17.08984375,-41.9921875,-46.38671875,39.0625
5,1734117395714.1562,17.578125,-46.875,-44.43359375,34.1796875
6,1734117395718.0625,11.23046875,-47.8515625,-42.48046875,44.921875
7,1734117395721.9688,13.671875,-44.921875,-47.8515625,44.43359375
8,1734117395725.875,16.6015625,-45.41015625,-44.43359375,33.203125
9,1734117395729.7812,13.671875,-48.828125,-47.8515625,33.69140625
10,1734117395733.6875,21.97265625,-52.24609375,-54.6875,36.1328125
11,1734117395737.5938,9.765625,-50.29296875,-44.43359375,25.390625
0,1734117395741.5,-6.8359375,-44.43359375,-38.57421875,8.7890625
1,1734117395745.4062,5.859375,-38.0859375,-43.9453125,18.5546875
2,1734117395749.3125,6.34765625,-36.62109375,-46.38671875,20.99609375
3,1734117395753.2188,-11.71875,-40.0390625,-43.45703125,2.9296875
4,1734117395757.125,-6.8359375,-45.8984375,-40.0390625,17.08984375
5,1734117395761.0312,6.34765625,-51.7578125,-44.43359375,33.203125
6,1734117395764.9375,0.48828125,-45.8984375,-47.36328125,15.625
7,1734117395768.8438,-1.46484375,-38.0859375,-51.26953125,2.44140625
8,1734117395772.75,0.48828125,-37.59765625,-54.6875,4.8828125
9,1734117395776.6562,-0.9765625,-39.0625,-51.26953125,-3.41796875
10,1734117395780.5625,-5.37109375,-41.015625,-44.43359375,-5.37109375
11,1734117395784.4688,-6.34765625,-47.36328125,-44.43359375,6.8359375
0,1734117395788.375,-16.6015625,-53.22265625,-49.31640625,-2.9296875
1,1734117395792.2812,-23.4375,-54.19921875,-46.38671875,3.90625
2,1734117395796.1875,-14.16015625,-55.6640625,-37.59765625,20.01953125
3,1734117395800.0938,-0.9765625,-51.7578125,-40.52734375,19.04296875
4,1734117395804,-1.46484375,-43.9453125,-44.43359375,13.671875
5,1734117395807.9062,2.44140625,-41.50390625,-38.57421875,29.296875
6,1734117395811.8125,11.71875,-40.0390625,-41.015625,48.33984375
7,1734117395815.7188,9.765625,-38.0859375,-45.8984375,40.0390625
8,1734117395819.625,-10.7421875,-48.33984375,-39.55078125,24.90234375
9,1734117395823.5312,-13.18359375,-53.7109375,-38.0859375,34.66796875
10,1734117395827.4375,2.9296875,-40.52734375,-43.9453125,34.66796875
11,1734117395831.3438,-1.953125,-39.55078125,-44.43359375,13.671875
0,1734117395835.25,-10.25390625,-50.29296875,-42.48046875,11.71875
1,1734117395839.1562,-13.18359375,-46.875,-41.50390625,2.9296875
2,1734117395843.0625,-4.39453125,-42.96875,-43.9453125,7.32421875
3,1734117395846.9688,-3.90625,-42.96875,-42.96875,15.13671875
4,1734117395850.875,-24.90234375,-44.43359375,-45.41015625,1.46484375
5,1734117395854.7812,-34.1796875,-49.31640625,-52.24609375,-0.9765625
6,1734117395858.6875,-16.6015625,-57.12890625,-54.6875,-8.30078125
7,1734117395862.5938,-20.99609375,-66.89453125,-56.15234375,-15.625
8,1734117395866.5,-40.0390625,-57.6171875,-54.6875,-28.80859375
9,1734117395870.4062,-43.45703125,-44.43359375,-52.24609375,-38.0859375
10,1734117395874.3125,-34.1796875,-37.109375,-49.31640625,-17.08984375
11,1734117395878.2188,-57.6171875,-37.109375,-56.640625,-24.90234375
0,1734117395882.125,-43.45703125,-38.57421875,-57.12890625,-38.57421875
1,1734117395886.0312,-30.2734375,-41.9921875,-54.19921875,-34.66796875
2,1734117395889.9375,-30.76171875,-40.52734375,-57.12890625,-19.04296875
3,1734117395893.8438,-14.16015625,-29.296875,-54.6875,-2.44140625
4,1734117395897.75,-16.6015625,-34.1796875,-57.6171875,-20.01953125
5,1734117395901.6562,-4.8828125,-35.15625,-56.15234375,-3.41796875
6,1734117395905.5625,-14.6484375,-28.80859375,-51.26953125,8.7890625
7,1734117395909.4688,-14.16015625,-30.76171875,-52.24609375,-12.6953125
8,1734117395913.375,-11.71875,-36.62109375,-51.7578125,5.37109375
9,1734117395917.2812,-11.23046875,-37.109375,-44.43359375,14.6484375
10,1734117395921.1875,1.46484375,-33.203125,-45.8984375,7.32421875
11,1734117395925.0938,-1.953125,-32.2265625,-51.7578125,-16.6015625
0,1734117395929,-23.92578125,-34.66796875,-45.8984375,-22.4609375
1,1734117395932.9062,-21.97265625,-40.0390625,-44.43359375,-15.625
2,1734117395936.8125,-10.7421875,-43.9453125,-48.828125,-17.08984375
3,1734117395940.7188,-11.71875,-41.9921875,-48.828125,-20.5078125
4,1734117395944.625,-14.16015625,-38.0859375,-47.36328125,-23.4375
5,1734117395948.5312,-21.97265625,-41.9921875,-48.33984375,-10.7421875
6,1734117395952.4375,-13.671875,-47.36328125,-51.7578125,-7.8125
7,1734117395956.3438,-5.37109375,-38.0859375,-58.10546875,-20.01953125
8,1734117395960.25,4.8828125,-32.2265625,-54.19921875,-17.08984375
9,1734117395964.1562,0.9765625,-32.2265625,-52.24609375,-8.7890625
10,1734117395968.0625,-7.8125,-37.59765625,-60.05859375,-9.765625
11,1734117395971.9688,-1.46484375,-51.7578125,-52.734375,-5.37109375
0,1734117395975.875,1.46484375,-58.10546875,-47.36328125,0.48828125
1,1734117395979.7812,0.48828125,-46.38671875,-49.31640625,-9.765625
2,1734117395983.6875,-2.44140625,-39.0625,-49.31640625,0
3,1734117395987.5938,12.6953125,-49.31640625,-41.9921875,25.87890625
4,1734117395991.5,14.16015625,-54.19921875,-39.55078125,25.390625
5,1734117395995.4062,10.25390625,-41.9921875,-43.45703125,24.4140625
6,1734117395999.3125,9.27734375,-32.71484375,-42.48046875,22.4609375
7,1734117396003.2188,16.11328125,-39.55078125,-42.96875,29.78515625
8,1734117396007.125,20.5078125,-46.875,-43.9453125,20.5078125
9,1734117396011.0312,11.23046875,-48.33984375,-43.9453125,19.53125
10,1734117396014.9375,17.578125,-53.7109375,-44.921875,16.11328125
11,1734117396018.8438,18.5546875,-47.36328125,-44.43359375,21.97265625
0,1734117396022.75,15.625,-36.62109375,-40.52734375,31.25
1,1734117396026.6562,15.13671875,-40.0390625,-39.0625,14.16015625
2,1734117396030.5625,26.85546875,-39.55078125,-37.109375,26.3671875
3,1734117396034.4688,29.296875,-33.69140625,-37.109375,20.5078125
4,1734117396038.375,28.3203125,-49.8046875,-39.55078125,12.20703125
5,1734117396042.2812,25.390625,-53.22265625,-45.8984375,3.41796875
6,1734117396046.1875,21.484375,-41.50390625,-41.50390625,-1.46484375
7,1734117396050.0938,24.90234375,-42.96875,-31.25,29.78515625
8,1734117396054,20.01953125,-48.33984375,-37.59765625,29.296875
9,1734117396057.9062,1.953125,-46.875,-44.43359375,1.46484375
10,1734117396061.8125,-10.25390625,-42.96875,-41.015625,-4.39453125
11,1734117396065.7188,-11.71875,-33.203125,-41.9921875,11.71875
0,1734117396069.625,-4.39453125,-31.73828125,-45.8984375,4.39453125
1,1734117396073.5312,-4.39453125,-37.109375,-44.921875,0
2,1734117396077.4375,-2.44140625,-31.25,-39.0625,16.11328125
3,1734117396081.3438,-12.6953125,-34.1796875,-44.43359375,10.7421875
4,1734117396085.25,-18.06640625,-43.9453125,-44.921875,2.9296875
5,1734117396089.1562,-0.48828125,-35.64453125,-37.109375,8.7890625
6,1734117396093.0625,-33.69140625,-31.25,-44.43359375,4.8828125
7,1734117396096.9688,-42.48046875,-37.59765625,-45.41015625,-2.9296875
8,1734117396100.875,-10.25390625,-42.48046875,-41.015625,0
9,1734117396104.7812,-23.4375,-38.57421875,-39.0625,3.90625
10,1734117396108.6875,-23.92578125,-44.43359375,-41.015625,5.37109375
11,1734117396112.5938,-14.6484375,-64.453125,-40.0390625,2.44140625
0,1734117396116.5,-21.97265625,-53.22265625,-39.0625,-5.859375
1,1734117396120.4062,-28.3203125,-37.59765625,-36.62109375,-13.18359375
2,1734117396124.3125,-26.3671875,-40.52734375,-33.203125,8.30078125
3,1734117396128.2188,-16.6015625,-41.50390625,-38.0859375,16.6015625
4,1734117396132.125,-17.08984375,-45.8984375,-40.0390625,2.9296875
5,1734117396136.0312,-23.4375,-41.50390625,-36.1328125,-1.46484375
6,1734117396139.9375,-13.18359375,-40.52734375,-37.109375,-0.48828125
7,1734117396143.8438,-17.578125,-41.50390625,-31.73828125,13.18359375
8,1734117396147.75,-31.25,-29.78515625,-33.69140625,-4.8828125
9,1734117396151.6562,-35.15625,-24.90234375,-42.96875,-33.69140625
10,1734117396155.5625,-36.62109375,-22.94921875,-40.0390625,-29.296875
11,1734117396159.4688,-1.46484375,-23.92578125,-37.59765625,-26.3671875
0,1734117396163.375,8.30078125,-32.71484375,-43.9453125,-31.25
1,1734117396167.2812,-5.37109375,-36.1328125,-45.8984375,-16.6015625
2,1734117396171.1875,-15.625,-29.296875,-42.96875,-32.2265625
3,1734117396175.0938,-12.20703125,-30.76171875,-46.875,-49.31640625
4,1734117396179,-2.44140625,-37.59765625,-49.8046875,-5.37109375
5,1734117396182.9062,-11.71875,-38.57421875,-51.26953125,7.32421875
6,1734117396186.8125,-11.23046875,-47.36328125,-51.7578125,1.46484375
7,1734117396190.7188,-5.859375,-41.9921875,-48.828125,2.9296875
8,1734117396194.625,-21.484375,-35.64453125,-45.8984375,-20.01953125
9,1734117396198.5312,-32.71484375,-42.48046875,-43.45703125,-20.5078125
10,1734117396202.4375,-25.87890625,-41.50390625,-44.921875,1.46484375
11,1734117396206.3438,-20.01953125,-42.96875,-45.41015625,-6.8359375
0,1734117396210.25,-24.90234375,-48.33984375,-44.921875,-17.578125
1,1734117396214.1562,-15.13671875,-48.33984375,-48.828125,-12.20703125
2,1734117396218.0625,5.859375,-42.48046875,-47.8515625,-2.9296875
3,1734117396221.9688,3.41796875,-43.9453125,-41.015625,10.25390625
4,1734117396225.875,2.9296875,-53.22265625,-37.109375,29.296875
5,1734117396229.7812,5.859375,-45.8984375,-36.1328125,30.76171875
6,1734117396233.6875,13.671875,-36.1328125,-37.109375,29.296875
7,1734117396237.5938,13.18359375,-40.0390625,-36.62109375,20.99609375
8,1734117396241.5,6.34765625,-46.875,-33.69140625,18.06640625
9,1734117396245.4062,11.23046875,-56.15234375,-31.73828125,20.5078125
10,1734117396249.3125,18.06640625,-60.05859375,-33.203125,-6.34765625
11,1734117396253.2188,13.671875,-69.3359375,-42.96875,-14.6484375
0,1734117396257.125,4.8828125,-71.77734375,-43.45703125,3.41796875
1,1734117396261.0312,7.32421875,-57.12890625,-39.55078125,6.34765625
2,1734117396264.9375,0.9765625,-46.875,-39.0625,18.06640625
3,1734117396268.8438,13.18359375,-41.50390625,-41.50390625,28.80859375
4,1734117396272.75,33.69140625,-43.9453125,-41.9921875,27.83203125
5,1734117396276.6562,12.20703125,-49.8046875,-39.55078125,18.5546875
6,1734117396280.5625,24.4140625,-44.43359375,-42.48046875,15.13671875
7,1734117396284.4688,45.41015625,-42.48046875,-42.48046875,19.04296875
8,1734117396288.375,25.87890625,-49.31640625,-41.50390625,20.99609375
9,1734117396292.2812,4.8828125,-44.921875,-43.9453125,35.64453125
10,1734117396296.1875,1.953125,-35.64453125,-45.8984375,32.2265625
11,1734117396300.0938,17.578125,-28.3203125,-41.015625,31.73828125
0,1734117396304,21.97265625,-31.25,-36.1328125,32.71484375
1,1734117396307.9062,4.39453125,-35.64453125,-41.9921875,24.90234375
2,1734117396311.8125,-2.9296875,-32.2265625,-43.9453125,11.71875
3,1734117396315.7188,-10.25390625,-26.3671875,-43.9453125,4.39453125
4,1734117396319.625,-8.7890625,-30.76171875,-41.9921875,11.23046875
5,1734117396323.5312,-8.7890625,-45.8984375,-41.015625,1.953125
6,1734117396327.4375,-22.94921875,-50.29296875,-50.29296875,-6.8359375
7,1734117396331.3438,-17.578125,-44.43359375,-48.33984375,-2.44140625
8,1734117396335.25,-7.8125,-38.57421875,-40.0390625,8.30078125
9,1734117396339.1562,-10.25390625,-42.48046875,-45.41015625,5.37109375
10,1734117396343.0625,-14.6484375,-50.78125,-51.7578125,3.90625
11,1734117396346.9688,-13.18359375,-50.29296875,-52.24609375,21.484375
0,1734117396350.875,-0.48828125,-46.38671875,-51.7578125,34.66796875
1,1734117396354.7812,-2.9296875,-42.96875,-52.24609375,21.484375
2,1734117396358.6875,-13.18359375,-35.15625,-54.19921875,9.765625
3,1734117396362.5938,-20.5078125,-34.66796875,-52.734375,6.8359375
4,1734117396366.5,-15.13671875,-36.62109375,-47.8515625,7.8125
5,1734117396370.4062,-8.30078125,-41.9921875,-44.921875,-1.953125
6,1734117396374.3125,-30.76171875,-48.33984375,-54.6875,-31.73828125
7,1734117396378.2188,-27.34375,-44.921875,-59.08203125,-46.38671875
8,1734117396382.125,-6.34765625,-47.36328125,-54.19921875,-22.4609375
9,1734117396386.0312,-7.8125,-49.31640625,-51.7578125,-20.5078125
10,1734117396389.9375,-7.32421875,-41.50390625,-50.29296875,-21.97265625
11,1734117396393.8438,-7.32421875,-35.64453125,-49.31640625,-2.44140625
0,1734117396397.75,-6.8359375,-40.0390625,-51.26953125,0.48828125
1,1734117396401.6562,-6.8359375,-46.875,-51.26953125,2.9296875
2,1734117396405.5625,-1.953125,-41.9921875,-45.41015625,-6.8359375
3,1734117396409.4688,-20.01953125,-49.31640625,-44.43359375,-28.3203125
4,1734117396413.375,-28.3203125,-54.6875,-44.921875,-2.9296875
5,1734117396417.2812,2.9296875,-45.41015625,-46.38671875,15.625
6,1734117396421.1875,-15.13671875,-43.45703125,-43.9453125,-1.953125
7,1734117396425.0938,-25.390625,-39.55078125,-39.55078125,1.46484375
8,1734117396429,-9.27734375,-39.55078125,-42.96875,28.3203125
9,1734117396432.9062,-13.671875,-47.36328125,-52.734375,15.625
10,1734117396436.8125,-16.11328125,-50.29296875,-52.734375,-4.8828125
11,1734117396440.7188,-5.37109375,-52.24609375,-44.921875,2.44140625
0,1734117396444.625,-20.5078125,-46.875,-43.9453125,13.671875
1,1734117396448.5312,-15.13671875,-40.0390625,-41.9921875,34.1796875
2,1734117396452.4375,6.8359375,-42.96875,-37.109375,22.94921875
3,1734117396456.3438,-15.13671875,-47.36328125,-34.66796875,19.53125
4,1734117396460.25,-14.6484375,-52.24609375,-33.69140625,23.92578125
5,1734117396464.1562,-24.90234375,-50.78125,-32.71484375,15.13671875
6,1734117396468.0625,-37.59765625,-47.8515625,-31.73828125,15.13671875
7,1734117396471.9688,-17.578125,-53.7109375,-35.15625,19.04296875
8,1734117396475.875,-13.18359375,-63.96484375,-43.45703125,2.9296875
9,1734117396479.7812,-14.16015625,-60.05859375,-45.41015625,4.39453125
10,1734117396483.6875,-10.7421875,-59.08203125,-45.41015625,-0.9765625
11,1734117396487.5938,-6.8359375,-65.4296875,-46.875,-9.27734375
0,1734117396491.5,-18.5546875,-58.59375,-43.45703125,2.9296875
1,1734117396495.4062,-17.578125,-58.10546875,-41.9921875,-3.90625
2,1734117396499.3125,-11.71875,-66.89453125,-44.921875,-8.30078125
3,1734117396503.2188,-23.92578125,-65.91796875,-47.36328125,-11.23046875
4,1734117396507.125,-17.578125,-64.94140625,-46.38671875,-2.44140625
5,1734117396511.0312,-14.6484375,-71.77734375,-46.875,5.37109375
6,1734117396514.9375,-7.8125,-68.84765625,-50.78125,12.6953125
7,1734117396518.8438,-15.625,-50.78125,-50.78125,3.41796875
8,1734117396522.75,-19.04296875,-50.78125,-52.734375,-0.9765625
9,1734117396526.6562,-11.23046875,-58.59375,-53.7109375,-1.46484375
10,1734117396530.5625,-19.53125,-45.41015625,-45.41015625,-0.9765625
11,1734117396534.4688,-11.23046875,-39.55078125,-40.52734375,11.23046875
0,1734117396538.375,-12.6953125,-52.734375,-42.48046875,-10.25390625
1,1734117396542.2812,-21.97265625,-58.10546875,-39.55078125,5.37109375
2,1734117396546.1875,-20.5078125,-50.78125,-37.109375,13.18359375
3,1734117396550.0938,-8.30078125,-41.015625,-36.1328125,9.765625
4,1734117396554,-5.859375,-39.0625,-40.0390625,15.13671875
5,1734117396557.9062,-15.625,-47.36328125,-40.52734375,8.30078125
6,1734117396561.8125,-9.765625,-44.921875,-38.57421875,15.13671875
7,1734117396565.7188,-26.3671875,-38.0859375,-43.45703125,6.8359375
8,1734117396569.625,-26.3671875,-43.9453125,-44.43359375,-21.97265625
9,1734117396573.5312,-2.44140625,-41.9921875,-44.921875,-31.25
10,1734117396577.4375,-12.20703125,-44.43359375,-46.875,-10.7421875
11,1734117396581.3438,-9.27734375,-43.9453125,-46.875,2.44140625
0,1734117396585.25,-6.34765625,-32.2265625,-45.41015625,10.7421875
1,1734117396589.1562,-12.20703125,-27.34375,-45.41015625,8.30078125
2,1734117396593.0625,-0.48828125,-26.85546875,-41.9921875,7.32421875
3,1734117396596.9688,4.8828125,-33.69140625,-39.55078125,9.765625
4,1734117396600.875,4.39453125,-36.62109375,-38.57421875,26.85546875
5,1734117396604.7812,-0.48828125,-35.15625,-35.15625,41.015625
6,1734117396608.6875,-14.16015625,-33.203125,-33.69140625,36.62109375
7,1734117396612.5938,-18.06640625,-36.62109375,-36.62109375,33.69140625
8,1734117396616.5,-15.625,-41.50390625,-43.45703125,24.4140625
9,1734117396620.4062,-6.34765625,-42.48046875,-45.41015625,21.97265625
10,1734117396624.3125,-2.44140625,-54.6875,-43.9453125,27.83203125
11,1734117396628.2188,-5.37109375,-50.78125,-41.015625,37.109375
0,1734117396632.125,1.46484375,-37.59765625,-41.50390625,28.80859375
1,1734117396636.0312,2.9296875,-41.50390625,-45.8984375,6.8359375
2,1734117396639.9375,-0.9765625,-44.921875,-46.38671875,4.8828125
3,1734117396643.8438,-1.953125,-45.41015625,-47.36328125,7.32421875
4,1734117396647.75,3.41796875,-42.48046875,-49.8046875,19.53125
5,1734117396651.6562,0.9765625,-41.50390625,-48.828125,20.99609375
6,1734117396655.5625,0.48828125,-47.8515625,-45.41015625,5.859375
7,1734117396659.4688,-3.41796875,-41.015625,-44.921875,0.48828125
8,1734117396663.375,-0.48828125,-32.71484375,-45.41015625,5.37109375
9,1734117396667.2812,0.48828125,-35.15625,-39.0625,19.04296875
10,1734117396671.1875,-2.9296875,-36.1328125,-35.15625,23.4375
11,1734117396675.0938,-14.6484375,-40.0390625,-36.1328125,17.08984375
0,1734117396679,-14.16015625,-55.6640625,-42.48046875,29.78515625
1,1734117396682.9062,-9.765625,-54.6875,-43.9453125,42.96875
2,1734117396686.8125,-13.18359375,-37.109375,-41.015625,21.484375
3,1734117396690.7188,-2.9296875,-30.2734375,-37.59765625,11.23046875
4,1734117396694.625,-20.01953125,-29.296875,-34.1796875,12.6953125
5,1734117396698.5312,-43.45703125,-34.1796875,-38.57421875,1.953125
6,1734117396702.4375,-34.1796875,-38.0859375,-44.921875,0
7,1734117396706.3438,-32.71484375,-33.69140625,-46.875,-2.44140625
8,1734117396710.25,-24.90234375,-39.55078125,-42.48046875,-15.13671875
9,1734117396714.1562,-8.7890625,-42.48046875,-43.45703125,-9.27734375
10,1734117396718.0625,-11.71875,-30.76171875,-45.8984375,-7.8125
11,1734117396721.9688,-11.71875,-29.296875,-43.9453125,-3.41796875
0,1734117396725.875,1.953125,-24.4140625,-44.921875,9.27734375
1,1734117396729.7812,1.953125,-22.4609375,-49.8046875,13.671875
2,1734117396733.6875,-16.11328125,-26.3671875,-50.29296875,0
3,1734117396737.5938,-40.52734375,-28.80859375,-42.48046875,-2.44140625
4,1734117396741.5,-15.13671875,-40.0390625,-41.015625,0.9765625
5,1734117396745.4062,-26.85546875,-52.734375,-41.015625,2.44140625
6,1734117396749.3125,-50.29296875,-41.015625,-40.52734375,4.39453125
7,1734117396753.2188,-14.6484375,-40.0390625,-40.52734375,-6.34765625
8,1734117396757.125,-5.859375,-42.96875,-38.0859375,10.7421875
9,1734117396761.0312,-11.71875,-36.1328125,-43.45703125,8.7890625
10,1734117396764.9375,-19.04296875,-34.1796875,-49.8046875,-4.39453125
11,1734117396768.8438,-20.99609375,-30.2734375,-47.36328125,5.859375
0,1734117396772.75,-24.90234375,-32.2265625,-45.41015625,-4.39453125
1,1734117396776.6562,-20.99609375,-30.76171875,-49.8046875,-11.23046875
2,1734117396780.5625,-13.671875,-34.1796875,-48.828125,-5.37109375
3,1734117396784.4688,-16.11328125,-34.1796875,-42.96875,-1.953125
4,1734117396788.375,-7.32421875,-37.59765625,-41.50390625,-3.90625
5,1734117396792.2812,-0.48828125,-48.828125,-40.52734375,5.37109375
6,1734117396796.1875,1.46484375,-40.52734375,-38.0859375,20.99609375
7,1734117396800.0938,-1.46484375,-32.2265625,-41.9921875,23.4375
8,1734117396804,-8.7890625,-35.64453125,-42.96875,22.4609375
9,1734117396807.9062,-13.18359375,-37.59765625,-43.45703125,17.08984375
10,1734117396811.8125,-1.953125,-39.55078125,-41.9921875,17.578125
11,1734117396815.7188,16.6015625,-40.0390625,-41.015625,32.71484375
0,1734117396819.625,22.4609375,-43.45703125,-45.8984375,22.4609375
1,1734117396823.5312,9.765625,-44.43359375,-48.33984375,27.83203125
2,1734117396827.4375,2.44140625,-42.48046875,-44.921875,41.9921875
3,1734117396831.3438,14.16015625,-48.828125,-38.57421875,38.57421875
4,1734117396835.25,-12.20703125,-60.05859375,-39.0625,41.50390625
5,1734117396839.1562,-18.5546875,-55.17578125,-41.9921875,45.8984375
6,1734117396843.0625,25.390625,-44.43359375,-38.0859375,48.33984375
7,1734117396846.9688,24.4140625,-44.43359375,-35.64453125,44.921875
8,1734117396850.875,7.8125,-46.875,-41.015625,47.8515625
9,1734117396854.7812,15.13671875,-48.828125,-42.96875,31.73828125
10,1734117396858.6875,14.6484375,-50.78125,-43.9453125,13.18359375
11,1734117396862.5938,1.46484375,-60.05859375,-46.875,26.3671875
0,1734117396866.5,6.34765625,-57.12890625,-44.921875,35.64453125
1,1734117396870.4062,4.8828125,-61.5234375,-41.015625,39.0625
2,1734117396874.3125,-14.16015625,-69.3359375,-41.015625,41.015625
3,1734117396878.2188,-12.20703125,-56.640625,-39.0625,36.62109375
4,1734117396882.125,7.32421875,-42.96875,-32.71484375,38.0859375
5,1734117396886.0312,2.44140625,-39.0625,-38.57421875,52.24609375
6,1734117396889.9375,0.9765625,-44.921875,-41.50390625,62.01171875
7,1734117396893.8438,10.7421875,-45.8984375,-38.57421875,61.5234375
8,1734117396897.75,2.9296875,-49.8046875,-39.55078125,51.7578125
9,1734117396901.6562,0.48828125,-57.6171875,-38.0859375,42.96875
10,1734117396905.5625,12.6953125,-51.7578125,-37.109375,35.15625
11,1734117396909.4688,27.83203125,-43.45703125,-37.109375,52.734375
0,1734117396913.375,19.04296875,-51.7578125,-37.59765625,59.08203125
1,1734117396917.2812,-1.46484375,-58.10546875,-37.109375,42.48046875
2,1734117396921.1875,4.39453125,-52.734375,-35.64453125,44.921875
3,1734117396925.0938,11.23046875,-56.15234375,-37.59765625,45.8984375
4,1734117396929,4.8828125,-56.15234375,-41.015625,41.9921875
5,1734117396932.9062,-5.859375,-45.8984375,-33.69140625,41.9921875
6,1734117396936.8125,2.9296875,-40.52734375,-27.83203125,54.6875
7,1734117396940.7188,2.44140625,-36.1328125,-31.25,32.2265625
8,1734117396944.625,-2.9296875,-35.64453125,-33.203125,12.20703125
9,1734117396948.5312,3.90625,-39.55078125,-32.2265625,31.73828125
10,1734117396952.4375,0.9765625,-44.921875,-38.0859375,31.73828125
11,1734117396956.3438,8.30078125,-38.0859375,-40.52734375,49.31640625
0,1734117396960.25,4.39453125,-33.203125,-36.62109375,42.48046875
1,1734117396964.1562,-4.39453125,-36.62109375,-39.0625,40.0390625
2,1734117396968.0625,2.44140625,-42.48046875,-42.48046875,43.9453125
3,1734117396971.9688,1.953125,-43.45703125,-40.0390625,10.7421875
4,1734117396975.875,-6.8359375,-36.1328125,-39.55078125,23.4375
5,1734117396979.7812,-9.765625,-40.52734375,-34.66796875,43.45703125
6,1734117396983.6875,-21.484375,-41.9921875,-31.25,12.6953125
7,1734117396987.5938,-28.3203125,-36.1328125,-37.109375,-3.90625
8,1734117396991.5,0.48828125,-36.62109375,-35.64453125,31.25
9,1734117396995.4062,-11.71875,-33.203125,-28.80859375,33.203125
10,1734117396999.3125,-30.76171875,-29.78515625,-31.73828125,32.71484375
11,1734117397003.2188,-16.11328125,-34.1796875,-35.15625,23.4375
0,1734117397007.125,-20.01953125,-43.45703125,-35.64453125,-3.41796875
1,1734117397011.0312,-13.671875,-33.203125,-39.55078125,10.25390625
2,1734117397014.9375,-4.8828125,-22.4609375,-39.0625,12.20703125
3,1734117397018.8438,-37.109375,-28.3203125,-38.57421875,-11.71875
4,1734117397022.75,-51.26953125,-37.59765625,-42.48046875,-4.8828125
5,1734117397026.6562,-30.2734375,-31.25,-42.96875,0
6,1734117397030.5625,-15.13671875,-29.78515625,-40.0390625,-14.16015625
7,1734117397034.4688,-24.4140625,-49.8046875,-37.109375,-5.859375
8,1734117397038.375,-26.3671875,-53.22265625,-39.55078125,8.7890625
9,1734117397042.2812,-12.6953125,-38.57421875,-43.9453125,16.11328125
10,1734117397046.1875,-20.99609375,-33.203125,-48.828125,9.765625
11,1734117397050.0938,-25.390625,-38.57421875,-49.31640625,-7.32421875
0,1734117397054,-23.4375,-36.62109375,-46.38671875,-1.953125
1,1734117397057.9062,-29.296875,-32.2265625,-43.9453125,18.06640625
2,1734117397061.8125,-36.62109375,-33.203125,-42.96875,7.8125
3,1734117397065.7188,-35.15625,-39.0625,-41.015625,-3.41796875
4,1734117397069.625,-16.6015625,-36.62109375,-38.0859375,13.18359375
5,1734117397073.5312,-10.25390625,-42.96875,-39.0625,28.80859375
6,1734117397077.4375,-25.390625,-52.734375,-41.50390625,16.11328125
7,1734117397081.3438,-24.90234375,-43.45703125,-41.9921875,-10.25390625
8,1734117397085.25,-23.4375,-37.109375,-37.109375,16.6015625
9,1734117397089.1562,-19.53125,-35.64453125,-40.52734375,38.0859375
10,1734117397093.0625,-0.9765625,-41.50390625,-48.33984375,19.04296875
11,1734117397096.9688,-9.27734375,-51.26953125,-46.875,11.71875
0,1734117397100.875,-8.7890625,-53.7109375,-46.38671875,19.53125
1,1734117397104.7812,3.41796875,-55.17578125,-45.8984375,16.6015625
2,1734117397108.6875,10.25390625,-63.96484375,-46.38671875,26.3671875
3,1734117397112.5938,3.90625,-63.4765625,-49.31640625,33.203125
4,1734117397116.5,10.7421875,-48.828125,-47.36328125,41.50390625
5,1734117397120.4062,17.08984375,-40.0390625,-43.45703125,59.5703125
6,1734117397124.3125,6.8359375,-38.0859375,-44.921875,56.640625
7,1734117397128.2188,8.30078125,-39.55078125,-42.48046875,45.8984375
8,1734117397132.125,5.37109375,-41.015625,-39.0625,48.828125
9,1734117397136.0312,7.32421875,-53.7109375,-42.48046875,48.33984375
10,1734117397139.9375,7.8125,-57.6171875,-45.8984375,54.6875
11,1734117397143.8438,5.37109375,-48.828125,-40.0390625,69.82421875
0,1734117397147.75,6.34765625,-48.33984375,-37.109375,67.87109375
1,1734117397151.6562,-0.9765625,-53.22265625,-42.96875,47.36328125
2,1734117397155.5625,3.90625,-50.29296875,-47.36328125,43.9453125
3,1734117397159.4688,6.34765625,-44.43359375,-44.43359375,46.38671875
4,1734117397163.375,5.37109375,-43.45703125,-40.0390625,41.9921875
5,1734117397167.2812,7.32421875,-47.36328125,-38.0859375,45.41015625
6,1734117397171.1875,8.30078125,-59.08203125,-39.0625,48.33984375
7,1734117397175.0938,2.44140625,-54.6875,-35.15625,53.7109375
8,1734117397179,-1.46484375,-38.57421875,-32.2265625,42.96875
9,1734117397182.9062,-1.953125,-40.0390625,-38.0859375,20.99609375
10,1734117397186.8125,-9.27734375,-44.43359375,-39.55078125,49.31640625
11,1734117397190.7188,0.9765625,-38.0859375,-40.0390625,58.10546875
0,1734117397194.625,3.90625,-42.48046875,-45.41015625,39.55078125
1,1734117397198.5312,-1.46484375,-50.78125,-45.41015625,27.83203125
2,1734117397202.4375,2.44140625,-41.015625,-42.96875,33.69140625
3,1734117397206.3438,4.39453125,-32.71484375,-43.9453125,54.19921875
4,1734117397210.25,1.46484375,-37.109375,-39.55078125,51.7578125
5,1734117397214.1562,5.37109375,-41.50390625,-37.109375,50.29296875
6,1734117397218.0625,7.8125,-44.43359375,-38.57421875,61.03515625
7,1734117397221.9688,7.8125,-42.48046875,-38.57421875,47.8515625
8,1734117397225.875,15.13671875,-35.64453125,-41.015625,36.1328125
9,1734117397229.7812,7.32421875,-44.921875,-41.015625,46.38671875
10,1734117397233.6875,-6.8359375,-43.45703125,-39.55078125,30.76171875
11,1734117397237.5938,0.9765625,-31.25,-37.59765625,9.765625
0,1734117397241.5,14.6484375,-34.1796875,-40.52734375,37.59765625
1,1734117397245.4062,13.18359375,-39.55078125,-41.015625,40.0390625
2,1734117397249.3125,17.08984375,-51.7578125,-33.203125,29.78515625
3,1734117397253.2188,12.20703125,-49.8046875,-34.1796875,43.9453125
4,1734117397257.125,-17.578125,-38.57421875,-36.1328125,42.96875
5,1734117397261.0312,-18.5546875,-32.2265625,-33.69140625,38.0859375
6,1734117397264.9375,-19.53125,-33.203125,-32.71484375,31.73828125
7,1734117397268.8438,-32.71484375,-37.109375,-33.203125,19.04296875
8,1734117397272.75,-27.83203125,-38.0859375,-36.62109375,21.97265625
9,1734117397276.6562,-22.94921875,-38.0859375,-39.0625,2.9296875
10,1734117397280.5625,-32.2265625,-44.43359375,-39.0625,-3.41796875
11,1734117397284.4688,-23.92578125,-43.45703125,-40.52734375,22.94921875
0,1734117397288.375,-21.97265625,-38.0859375,-43.9453125,17.578125
1,1734117397292.2812,-34.1796875,-44.43359375,-41.015625,19.04296875
2,1734117397296.1875,-36.1328125,-38.57421875,-36.62109375,12.6953125
3,1734117397300.0938,-33.69140625,-42.48046875,-39.55078125,9.765625
4,1734117397304,-38.0859375,-43.9453125,-44.921875,-3.41796875
5,1734117397307.9062,-29.296875,-32.2265625,-44.921875,-11.23046875
6,1734117397311.8125,-18.5546875,-34.1796875,-40.52734375,16.6015625
7,1734117397315.7188,-29.78515625,-36.62109375,-43.9453125,20.99609375
8,1734117397319.625,-23.4375,-37.109375,-46.875,21.97265625
9,1734117397323.5312,-24.90234375,-38.57421875,-42.48046875,22.94921875
10,1734117397327.4375,-33.203125,-41.9921875,-46.38671875,24.4140625
11,1734117397331.3438,-32.71484375,-43.45703125,-50.29296875,25.87890625
0,1734117397335.25,-26.3671875,-46.38671875,-46.875,15.625
1,1734117397339.1562,-17.08984375,-51.26953125,-44.43359375,9.765625
2,1734117397343.0625,-24.4140625,-55.17578125,-43.45703125,7.8125
3,1734117397346.9688,-22.4609375,-58.10546875,-41.50390625,8.7890625
4,1734117397350.875,-30.2734375,-53.7109375,-46.875,12.20703125
5,1734117397354.7812,-27.34375,-42.48046875,-46.38671875,19.04296875
6,1734117397358.6875,-20.99609375,-31.73828125,-45.41015625,26.3671875
7,1734117397362.5938,-20.5078125,-30.2734375,-50.78125,29.78515625
8,1734117397366.5,-21.484375,-34.66796875,-46.38671875,35.15625
9,1734117397370.4062,-9.765625,-33.69140625,-40.52734375,34.66796875
10,1734117397374.3125,-5.37109375,-33.69140625,-38.0859375,29.78515625
11,1734117397378.2188,-17.08984375,-41.9921875,-41.9921875,23.92578125
0,1734117397382.125,-14.16015625,-56.640625,-42.48046875,25.390625
1,1734117397386.0312,-17.08984375,-54.19921875,-39.55078125,29.78515625
2,1734117397389.9375,-7.32421875,-36.62109375,-39.0625,39.0625
3,1734117397393.8438,-7.32421875,-36.62109375,-37.59765625,41.50390625
4,1734117397397.75,-6.8359375,-42.96875,-37.109375,44.921875
5,1734117397401.6562,1.953125,-44.921875,-39.0625,33.69140625
6,1734117397405.5625,-1.953125,-40.52734375,-39.55078125,34.1796875
7,1734117397409.4688,-6.34765625,-43.45703125,-42.96875,41.015625
8,1734117397413.375,2.44140625,-41.50390625,-46.38671875,31.25
9,1734117397417.2812,3.41796875,-36.62109375,-43.9453125,37.109375
10,1734117397421.1875,-1.46484375,-46.875,-43.9453125,31.73828125
11,1734117397425.0938,0,-43.45703125,-43.45703125,37.109375
0,1734117397429,2.44140625,-33.203125,-38.0859375,38.0859375
1,1734117397432.9062,11.23046875,-35.64453125,-37.109375,43.9453125
2,1734117397436.8125,14.6484375,-39.0625,-40.52734375,45.8984375
3,1734117397440.7188,11.23046875,-41.9921875,-37.59765625,46.875
4,1734117397444.625,12.20703125,-36.62109375,-34.66796875,60.546875
5,1734117397448.5312,9.765625,-31.25,-33.69140625,59.08203125
6,1734117397452.4375,17.578125,-38.0859375,-29.296875,43.45703125
7,1734117397456.3438,23.4375,-38.57421875,-37.59765625,43.45703125
8,1734117397460.25,16.11328125,-38.0859375,-43.9453125,59.08203125
9,1734117397464.1562,12.6953125,-43.45703125,-41.9921875,44.43359375
10,1734117397468.0625,1.953125,-41.015625,-47.36328125,33.203125
11,1734117397471.9688,-2.44140625,-36.1328125,-48.33984375,35.64453125
0,1734117397475.875,4.8828125,-36.1328125,-42.96875,45.41015625
1,1734117397479.7812,4.8828125,-40.0390625,-42.96875,57.6171875
2,1734117397483.6875,12.20703125,-44.921875,-45.41015625,52.734375
3,1734117397487.5938,25.87890625,-44.921875,-42.96875,59.08203125
4,1734117397491.5,24.4140625,-34.66796875,-39.55078125,51.7578125
5,1734117397495.4062,14.16015625,-20.01953125,-37.59765625,37.59765625
6,1734117397499.3125,16.6015625,-20.5078125,-35.15625,40.0390625
7,1734117397503.2188,8.7890625,-32.2265625,-35.64453125,38.0859375
8,1734117397507.125,-2.9296875,-36.62109375,-36.1328125,44.921875
9,1734117397511.0312,-7.8125,-37.59765625,-38.0859375,44.921875
10,1734117397514.9375,-1.46484375,-48.33984375,-39.0625,36.1328125
11,1734117397518.8438,3.41796875,-54.19921875,-40.52734375,39.55078125
0,1734117397522.75,0,-38.57421875,-46.875,45.8984375
1,1734117397526.6562,5.37109375,-30.2734375,-46.38671875,41.015625
2,1734117397530.5625,0,-38.0859375,-48.828125,32.71484375
3,1734117397534.4688,-1.46484375,-41.015625,-50.29296875,49.31640625
4,1734117397538.375,13.671875,-38.0859375,-45.8984375,40.0390625
5,1734117397542.2812,17.578125,-37.109375,-47.8515625,29.296875
6,1734117397546.1875,-2.44140625,-39.0625,-45.41015625,37.59765625
7,1734117397550.0938,-9.765625,-48.828125,-39.0625,17.08984375
8,1734117397554,-6.34765625,-49.31640625,-43.45703125,15.13671875
9,1734117397557.9062,-15.13671875,-44.43359375,-49.31640625,22.94921875
10,1734117397561.8125,-15.625,-42.48046875,-44.921875,36.1328125
11,1734117397565.7188,-15.13671875,-39.0625,-45.8984375,22.4609375
0,1734117397569.625,-9.27734375,-41.50390625,-51.7578125,20.5078125
1,1734117397573.5312,-7.8125,-41.9921875,-43.45703125,20.99609375
2,1734117397577.4375,-13.18359375,-38.0859375,-41.9921875,14.16015625
3,1734117397581.3438,-1.46484375,-44.43359375,-44.921875,26.85546875
4,1734117397585.25,-4.39453125,-50.29296875,-42.48046875,35.64453125
5,1734117397589.1562,-1.46484375,-41.50390625,-38.57421875,36.1328125
6,1734117397593.0625,16.6015625,-41.9921875,-36.62109375,32.2265625
7,1734117397596.9688,-1.953125,-42.96875,-40.52734375,41.50390625
8,1734117397600.875,-10.25390625,-44.921875,-43.9453125,24.4140625
9,1734117397604.7812,-1.953125,-40.0390625,-46.38671875,12.20703125
10,1734117397608.6875,3.90625,-25.87890625,-41.50390625,23.4375
11,1734117397612.5938,-7.8125,-28.3203125,-41.9921875,13.671875
0,1734117397616.5,-34.1796875,-37.109375,-48.828125,-0.48828125
1,1734117397620.4062,-27.34375,-38.57421875,-42.96875,6.8359375
2,1734117397624.3125,-21.484375,-36.62109375,-35.64453125,1.953125
3,1734117397628.2188,-26.3671875,-43.45703125,-37.59765625,-13.18359375
4,1734117397632.125,-30.2734375,-50.29296875,-41.015625,-19.04296875
5,1734117397636.0312,-31.25,-37.59765625,-36.1328125,-1.953125
6,1734117397639.9375,-33.203125,-33.69140625,-33.203125,8.7890625
7,1734117397643.8438,-32.71484375,-39.0625,-35.15625,-0.48828125
8,1734117397647.75,-33.203125,-45.8984375,-34.66796875,-3.90625
9,1734117397651.6562,-38.57421875,-46.38671875,-39.0625,2.44140625
10,1734117397655.5625,-31.73828125,-34.66796875,-41.50390625,16.6015625
11,1734117397659.4688,-27.83203125,-39.55078125,-38.0859375,8.7890625
0,1734117397663.375,-25.390625,-38.57421875,-36.1328125,-7.8125
1,1734117397667.2812,-17.08984375,-23.4375,-32.71484375,-0.9765625
2,1734117397671.1875,-22.94921875,-24.90234375,-39.55078125,17.08984375
3,1734117397675.0938,-29.296875,-30.2734375,-44.43359375,8.7890625
4,1734117397679,-30.2734375,-37.59765625,-39.55078125,2.9296875
5,1734117397682.9062,-35.15625,-40.0390625,-42.48046875,-2.44140625
6,1734117397686.8125,-19.53125,-36.1328125,-45.8984375,-3.90625
7,1734117397690.7188,-16.6015625,-44.921875,-46.38671875,-5.37109375
8,1734117397694.625,-27.34375,-42.96875,-50.29296875,-4.39453125
9,1734117397698.5312,-4.39453125,-35.15625,-47.8515625,0.48828125
10,1734117397702.4375,-11.23046875,-39.55078125,-48.828125,2.44140625
11,1734117397706.3438,-14.16015625,-42.48046875,-47.36328125,18.5546875
0,1734117397710.25,1.953125,-44.921875,-46.38671875,20.5078125
1,1734117397714.1562,-1.953125,-45.41015625,-47.8515625,-2.9296875
2,1734117397718.0625,-6.34765625,-46.38671875,-47.8515625,-0.48828125
3,1734117397721.9688,-20.99609375,-49.31640625,-47.36328125,12.6953125
4,1734117397725.875,-9.27734375,-48.828125,-43.45703125,10.25390625
5,1734117397729.7812,3.41796875,-40.52734375,-44.43359375,27.34375
6,1734117397733.6875,-13.18359375,-46.875,-42.48046875,25.390625
7,1734117397737.5938,-20.99609375,-45.8984375,-40.52734375,17.578125
8,1734117397741.5,-9.765625,-40.0390625,-42.96875,8.7890625
9,1734117397745.4062,-7.32421875,-43.9453125,-42.48046875,23.4375
10,1734117397749.3125,-12.20703125,-43.45703125,-43.45703125,39.55078125
11,1734117397753.2188,-11.71875,-48.828125,-41.015625,23.92578125
0,1734117397757.125,-7.32421875,-47.36328125,-39.55078125,40.52734375
1,1734117397761.0312,-9.27734375,-45.8984375,-41.9921875,45.41015625
2,1734117397764.9375,-0.9765625,-50.29296875,-41.50390625,41.015625
3,1734117397768.8438,6.34765625,-54.19921875,-39.0625,47.36328125
4,1734117397772.75,4.39453125,-51.26953125,-37.109375,42.96875
5,1734117397776.6562,8.7890625,-36.1328125,-39.55078125,31.73828125
6,1734117397780.5625,-4.39453125,-32.71484375,-36.62109375,33.203125
7,1734117397784.4688,-4.39453125,-34.1796875,-37.109375,26.3671875
8,1734117397788.375,-9.765625,-38.57421875,-44.43359375,11.71875
9,1734117397792.2812,-12.20703125,-41.9921875,-43.45703125,26.3671875
10,1734117397796.1875,-1.953125,-46.38671875,-43.45703125,23.92578125
11,1734117397800.0938,-6.8359375,-56.640625,-41.015625,24.4140625
0,1734117397804,3.90625,-44.921875,-40.0390625,41.015625
1,1734117397807.9062,-1.46484375,-37.109375,-44.921875,33.69140625
2,1734117397811.8125,-7.32421875,-38.0859375,-45.41015625,32.71484375
3,1734117397815.7188,6.8359375,-41.9921875,-45.8984375,37.59765625
4,1734117397819.625,16.11328125,-41.50390625,-44.43359375,41.015625
5,1734117397823.5312,15.625,-34.1796875,-48.828125,41.015625
6,1734117397827.4375,10.25390625,-33.203125,-50.29296875,32.71484375
7,1734117397831.3438,8.7890625,-38.57421875,-42.48046875,34.1796875
8,1734117397835.25,-2.9296875,-41.9921875,-38.0859375,13.18359375
9,1734117397839.1562,6.34765625,-46.38671875,-38.0859375,15.13671875
10,1734117397843.0625,-2.9296875,-51.7578125,-45.8984375,38.0859375
11,1734117397846.9688,-7.32421875,-44.43359375,-47.36328125,29.78515625
0,1734117397850.875,1.46484375,-37.59765625,-45.8984375,35.15625
1,1734117397854.7812,-35.64453125,-37.59765625,-45.8984375,35.15625
2,1734117397858.6875,-26.3671875,-36.62109375,-45.41015625,21.97265625
3,1734117397862.5938,-0.48828125,-39.55078125,-45.41015625,20.01953125
4,1734117397866.5,-24.90234375,-43.9453125,-43.45703125,24.90234375
5,1734117397870.4062,-22.94921875,-46.875,-40.52734375,17.578125
6,1734117397874.3125,-27.34375,-54.19921875,-40.0390625,6.34765625
7,1734117397878.2188,-48.828125,-49.8046875,-44.921875,1.953125
8,1734117397882.125,-44.43359375,-40.52734375,-43.45703125,3.41796875
9,1734117397886.0312,-33.69140625,-40.0390625,-39.0625,-3.90625
10,1734117397889.9375,-42.48046875,-36.62109375,-43.45703125,-5.859375
11,1734117397893.8438,-47.36328125,-40.52734375,-43.45703125,5.859375
0,1734117397897.75,-31.73828125,-48.33984375,-40.0390625,5.859375
1,1734117397901.6562,-23.92578125,-41.015625,-39.55078125,-3.90625
2,1734117397905.5625,-28.80859375,-35.64453125,-40.0390625,-3.90625
3,1734117397909.4688,-33.203125,-36.62109375,-39.0625,2.9296875
4,1734117397913.375,-34.66796875,-36.62109375,-44.921875,-8.7890625
5,1734117397917.2812,-52.734375,-34.66796875,-40.0390625,-7.32421875
6,1734117397921.1875,-54.6875,-37.109375,-38.0859375,-13.18359375
7,1734117397925.0938,-36.1328125,-42.48046875,-44.43359375,-8.30078125
8,1734117397929,-30.2734375,-49.8046875,-36.62109375,7.8125
9,1734117397932.9062,-42.48046875,-46.875,-36.62109375,-1.953125
10,1734117397936.8125,-34.1796875,-35.64453125,-47.36328125,-8.7890625
11,1734117397940.7188,-35.15625,-41.015625,-45.41015625,-5.37109375
0,1734117397944.625,-39.55078125,-41.50390625,-44.43359375,2.44140625
1,1734117397948.5312,-24.4140625,-40.52734375,-44.921875,4.8828125
2,1734117397952.4375,-28.3203125,-41.50390625,-43.9453125,14.6484375
3,1734117397956.3438,-32.2265625,-39.55078125,-43.45703125,13.18359375
4,1734117397960.25,-26.85546875,-40.52734375,-41.9921875,8.30078125
5,1734117397964.1562,-23.4375,-45.8984375,-42.48046875,0.48828125
6,1734117397968.0625,-22.94921875,-47.8515625,-41.9921875,-24.4140625
7,1734117397971.9688,-16.6015625,-41.50390625,-41.50390625,-22.4609375
8,1734117397975.875,-19.04296875,-52.734375,-45.41015625,-10.7421875
9,1734117397979.7812,-19.53125,-58.59375,-47.36328125,10.25390625
10,1734117397983.6875,-10.7421875,-46.875,-43.9453125,17.08984375
11,1734117397987.5938,-24.90234375,-47.36328125,-43.9453125,21.97265625
0,1734117397991.5,-34.66796875,-50.29296875,-44.43359375,41.015625
1,1734117397995.4062,-13.18359375,-41.9921875,-37.59765625,43.9453125
2,1734117397999.3125,-5.859375,-47.36328125,-36.1328125,41.015625
3,1734117398003.2188,-9.27734375,-47.8515625,-40.52734375,37.109375
4,1734117398007.125,-8.30078125,-38.0859375,-41.015625,28.3203125
5,1734117398011.0312,4.8828125,-36.1328125,-35.64453125,23.4375
6,1734117398014.9375,6.8359375,-35.64453125,-36.1328125,36.62109375
7,1734117398018.8438,4.39453125,-39.0625,-36.1328125,42.48046875
8,1734117398022.75,18.06640625,-45.8984375,-38.57421875,36.62109375
9,1734117398026.6562,16.11328125,-44.921875,-44.43359375,43.9453125
10,1734117398030.5625,15.625,-38.0859375,-35.15625,44.43359375
11,1734117398034.4688,26.3671875,-42.48046875,-32.2265625,44.43359375
0,1734117398038.375,21.97265625,-41.015625,-38.0859375,40.52734375
1,1734117398042.2812,6.34765625,-34.66796875,-40.0390625,38.57421875
2,1734117398046.1875,1.953125,-31.73828125,-39.0625,34.1796875
3,1734117398050.0938,5.859375,-31.73828125,-38.57421875,26.3671875
4,1734117398054,1.953125,-36.1328125,-41.015625,31.25
5,1734117398057.9062,-5.37109375,-42.48046875,-41.015625,24.4140625
6,1734117398061.8125,-3.90625,-50.29296875,-41.50390625,25.87890625
7,1734117398065.7188,-0.9765625,-43.45703125,-46.875,30.2734375
8,1734117398069.625,6.8359375,-37.109375,-46.875,32.71484375
9,1734117398073.5312,20.5078125,-37.59765625,-39.0625,53.22265625
10,1734117398077.4375,12.6953125,-40.52734375,-39.0625,56.640625
11,1734117398081.3438,7.32421875,-43.9453125,-42.96875,52.734375
0,1734117398085.25,17.08984375,-41.9921875,-40.0390625,52.24609375
1,1734117398089.1562,8.7890625,-46.875,-41.015625,42.96875
2,1734117398093.0625,-8.7890625,-43.9453125,-40.52734375,24.90234375
3,1734117398096.9688,-9.27734375,-33.203125,-41.50390625,17.08984375
4,1734117398100.875,-6.34765625,-39.55078125,-44.921875,19.53125
5,1734117398104.7812,1.953125,-40.0390625,-43.9453125,21.484375
6,1734117398108.6875,-3.41796875,-38.57421875,-49.8046875,16.6015625
7,1734117398112.5938,-12.6953125,-48.828125,-52.734375,10.7421875
8,1734117398116.5,-2.9296875,-46.38671875,-48.828125,10.25390625
9,1734117398120.4062,-4.8828125,-33.69140625,-48.33984375,21.97265625
10,1734117398124.3125,3.90625,-36.62109375,-47.8515625,26.3671875
11,1734117398128.2188,7.8125,-35.15625,-44.43359375,16.11328125
0,1734117398132.125,5.859375,-35.64453125,-43.45703125,20.5078125
1,1734117398136.0312,6.8359375,-38.0859375,-43.9453125,26.85546875
2,1734117398139.9375,-7.32421875,-34.66796875,-47.8515625,20.99609375
3,1734117398143.8438,-3.41796875,-40.52734375,-49.8046875,4.39453125
4,1734117398147.75,-6.8359375,-40.0390625,-49.31640625,-4.39453125
5,1734117398151.6562,1.953125,-28.3203125,-45.41015625,8.7890625
6,1734117398155.5625,4.8828125,-29.296875,-45.41015625,17.578125
7,1734117398159.4688,-8.30078125,-35.15625,-46.875,19.04296875
8,1734117398163.375,-12.20703125,-33.69140625,-41.50390625,12.20703125
9,1734117398167.2812,-9.27734375,-45.41015625,-39.0625,26.85546875
10,1734117398171.1875,0.9765625,-50.78125,-41.015625,39.0625
11,1734117398175.0938,3.90625,-39.0625,-44.43359375,32.71484375
0,1734117398179,15.13671875,-34.1796875,-42.96875,47.36328125
1,1734117398182.9062,17.578125,-31.73828125,-41.015625,50.29296875
2,1734117398186.8125,19.53125,-35.15625,-41.50390625,41.015625
3,1734117398190.7188,17.08984375,-41.9921875,-42.96875,39.0625
4,1734117398194.625,16.6015625,-41.9921875,-42.96875,39.55078125
5,1734117398198.5312,13.671875,-45.8984375,-38.57421875,40.52734375
6,1734117398202.4375,-2.44140625,-56.640625,-41.015625,33.69140625
7,1734117398206.3438,-1.46484375,-48.33984375,-45.41015625,20.01953125
8,1734117398210.25,4.8828125,-35.64453125,-40.52734375,22.94921875
9,1734117398214.1562,2.9296875,-38.0859375,-40.0390625,38.0859375
10,1734117398218.0625,-1.953125,-43.45703125,-45.8984375,27.83203125
11,1734117398221.9688,1.46484375,-44.921875,-46.38671875,10.7421875
0,1734117398225.875,7.32421875,-38.57421875,-46.38671875,20.99609375
1,1734117398229.7812,5.37109375,-30.76171875,-47.8515625,21.97265625
2,1734117398233.6875,-1.953125,-34.1796875,-46.38671875,14.16015625
3,1734117398237.5938,1.953125,-35.64453125,-45.41015625,12.20703125
4,1734117398241.5,2.44140625,-31.73828125,-47.36328125,-3.41796875
5,1734117398245.4062,-4.39453125,-35.15625,-48.828125,2.9296875
6,1734117398249.3125,-0.9765625,-35.15625,-43.45703125,18.5546875
7,1734117398253.2188,0,-39.55078125,-41.50390625,19.04296875
8,1734117398257.125,-6.8359375,-39.55078125,-43.45703125,26.85546875
9,1734117398261.0312,-19.04296875,-34.1796875,-39.0625,11.23046875
10,1734117398264.9375,-12.6953125,-33.69140625,-39.55078125,11.71875
11,1734117398268.8438,-5.859375,-30.76171875,-40.0390625,28.80859375
0,1734117398272.75,-3.41796875,-29.78515625,-37.59765625,24.4140625
1,1734117398276.6562,-6.8359375,-37.59765625,-39.0625,13.18359375
2,1734117398280.5625,-1.46484375,-35.15625,-34.66796875,20.5078125
3,1734117398284.4688,-1.46484375,-22.94921875,-33.203125,27.83203125
4,1734117398288.375,-10.7421875,-27.83203125,-38.0859375,23.92578125
5,1734117398292.2812,-11.71875,-32.71484375,-39.0625,28.3203125
6,1734117398296.1875,-5.37109375,-32.2265625,-36.62109375,35.64453125
7,1734117398300.0938,1.953125,-30.76171875,-35.64453125,26.85546875
8,1734117398304,-7.32421875,-23.92578125,-36.1328125,30.2734375
9,1734117398307.9062,-8.7890625,-24.4140625,-38.0859375,36.1328125
10,1734117398311.8125,-3.90625,-27.34375,-36.1328125,35.15625
11,1734117398315.7188,3.41796875,-23.4375,-41.50390625,35.64453125
0,1734117398319.625,8.30078125,-35.64453125,-43.9453125,30.2734375
1,1734117398323.5312,-3.41796875,-41.015625,-45.8984375,34.1796875
2,1734117398327.4375,-3.90625,-26.3671875,-44.43359375,31.25
3,1734117398331.3438,-0.48828125,-26.85546875,-39.55078125,38.0859375
4,1734117398335.25,1.953125,-32.71484375,-37.109375,43.45703125
5,1734117398339.1562,-14.6484375,-31.25,-37.59765625,41.9921875
6,1734117398343.0625,-30.2734375,-32.71484375,-41.015625,23.4375
7,1734117398346.9688,-22.4609375,-34.66796875,-37.109375,2.44140625
8,1734117398350.875,-21.484375,-40.52734375,-38.57421875,15.625
9,1734117398354.7812,-21.97265625,-51.7578125,-42.96875,16.6015625
10,1734117398358.6875,-13.671875,-45.8984375,-40.52734375,26.85546875
11,1734117398362.5938,-8.30078125,-31.73828125,-41.9921875,26.85546875
0,1734117398366.5,-18.06640625,-29.78515625,-42.48046875,6.8359375
1,1734117398370.4062,-9.765625,-46.38671875,-43.9453125,4.8828125
2,1734117398374.3125,0,-41.9921875,-45.8984375,26.85546875
3,1734117398378.2188,-9.27734375,-32.71484375,-46.38671875,24.90234375
4,1734117398382.125,-14.6484375,-38.0859375,-46.38671875,13.18359375
5,1734117398386.0312,-14.16015625,-37.59765625,-42.48046875,24.4140625
6,1734117398389.9375,-8.30078125,-40.52734375,-39.55078125,26.3671875
7,1734117398393.8438,0.48828125,-46.875,-38.57421875,22.94921875
8,1734117398397.75,-4.8828125,-41.015625,-39.0625,9.27734375
9,1734117398401.6562,-16.11328125,-31.25,-43.45703125,-3.90625
10,1734117398405.5625,-21.97265625,-24.4140625,-47.36328125,12.6953125
11,1734117398409.4688,-9.765625,-36.1328125,-44.43359375,21.97265625
0,1734117398413.375,1.953125,-37.59765625,-40.0390625,20.5078125
1,1734117398417.2812,-9.765625,-23.4375,-37.59765625,14.6484375
2,1734117398421.1875,-18.06640625,-27.83203125,-37.109375,19.53125
3,1734117398425.0938,-5.37109375,-38.0859375,-41.9921875,0.9765625
4,1734117398429,5.37109375,-41.50390625,-46.875,7.8125
5,1734117398432.9062,-6.34765625,-37.59765625,-42.96875,42.48046875
6,1734117398436.8125,-3.41796875,-33.203125,-37.59765625,34.1796875
7,1734117398440.7188,3.41796875,-35.64453125,-39.55078125,38.57421875
8,1734117398444.625,5.859375,-36.1328125,-40.52734375,32.2265625
9,1734117398448.5312,0.48828125,-34.1796875,-41.015625,18.5546875
10,1734117398452.4375,-1.953125,-37.59765625,-46.38671875,25.87890625
11,1734117398456.3438,6.8359375,-33.69140625,-45.8984375,19.04296875
0,1734117398460.25,-0.48828125,-35.64453125,-41.50390625,12.6953125
1,1734117398464.1562,-5.37109375,-43.9453125,-36.1328125,20.01953125
2,1734117398468.0625,-7.8125,-36.1328125,-34.1796875,16.11328125
3,1734117398471.9688,0.9765625,-30.76171875,-38.57421875,16.6015625
4,1734117398475.875,6.34765625,-28.80859375,-37.109375,28.80859375
5,1734117398479.7812,-5.37109375,-28.80859375,-32.2265625,25.390625
6,1734117398483.6875,-2.9296875,-33.69140625,-35.15625,27.83203125
7,1734117398487.5938,-3.41796875,-39.55078125,-42.48046875,31.25
8,1734117398491.5,-13.671875,-42.48046875,-42.48046875,5.859375
9,1734117398495.4062,-4.8828125,-31.73828125,-39.0625,-1.953125
10,1734117398499.3125,3.90625,-33.69140625,-38.57421875,20.01953125
11,1734117398503.2188,-8.7890625,-45.8984375,-42.48046875,25.87890625
0,1734117398507.125,-2.9296875,-42.96875,-48.828125,22.4609375
1,1734117398511.0312,8.30078125,-36.62109375,-48.828125,34.1796875
2,1734117398514.9375,3.90625,-29.296875,-46.875,30.76171875
3,1734117398518.8438,0.48828125,-29.296875,-45.8984375,29.296875
4,1734117398522.75,-10.7421875,-34.1796875,-41.50390625,25.87890625
5,1734117398526.6562,-12.6953125,-34.66796875,-39.55078125,19.04296875
6,1734117398530.5625,-11.23046875,-31.25,-37.109375,22.94921875
7,1734117398534.4688,-10.25390625,-39.0625,-35.64453125,18.5546875
8,1734117398538.375,0.48828125,-48.33984375,-35.64453125,20.99609375
9,1734117398542.2812,-4.8828125,-40.0390625,-34.66796875,25.87890625
10,1734117398546.1875,-9.27734375,-36.1328125,-38.0859375,9.765625
11,1734117398550.0938,-16.6015625,-42.96875,-44.43359375,0
0,1734117398554,-17.578125,-45.41015625,-48.33984375,4.39453125
1,1734117398557.9062,-12.20703125,-44.43359375,-47.36328125,18.5546875
2,1734117398561.8125,-12.20703125,-44.921875,-47.8515625,7.8125
3,1734117398565.7188,-3.90625,-40.0390625,-44.921875,3.90625
4,1734117398569.625,-16.6015625,-46.38671875,-43.45703125,16.11328125
5,1734117398573.5312,-9.765625,-52.734375,-44.43359375,21.97265625
6,1734117398577.4375,-0.48828125,-41.015625,-40.52734375,11.71875
7,1734117398581.3438,-18.5546875,-36.1328125,-42.48046875,0.9765625
8,1734117398585.25,-12.6953125,-41.9921875,-44.921875,5.859375
9,1734117398589.1562,-8.30078125,-43.45703125,-44.921875,0.48828125
10,1734117398593.0625,-1.953125,-50.78125,-52.24609375,-0.9765625
11,1734117398596.9688,3.41796875,-53.22265625,-51.7578125,12.20703125
0,1734117398600.875,-8.30078125,-41.50390625,-47.8515625,18.5546875
1,1734117398604.7812,-5.859375,-37.109375,-49.8046875,13.18359375
2,1734117398608.6875,1.953125,-36.1328125,-52.24609375,9.27734375
3,1734117398612.5938,4.8828125,-36.62109375,-49.31640625,20.5078125
4,1734117398616.5,-6.34765625,-41.015625,-44.921875,9.765625
5,1734117398620.4062,-17.578125,-43.45703125,-47.36328125,-13.18359375
6,1734117398624.3125,-26.3671875,-51.7578125,-50.78125,-13.671875
7,1734117398628.2188,-31.25,-45.8984375,-50.29296875,0
8,1734117398632.125,-27.83203125,-30.2734375,-44.921875,6.34765625
9,1734117398636.0312,-24.90234375,-31.25,-42.96875,-5.859375
10,1734117398639.9375,-26.3671875,-32.2265625,-42.48046875,-5.37109375
11,1734117398643.8438,-20.01953125,-35.15625,-41.50390625,-4.8828125
0,1734117398647.75,-24.90234375,-48.33984375,-43.45703125,-16.6015625
1,1734117398651.6562,-36.62109375,-59.5703125,-44.43359375,-27.34375
2,1734117398655.5625,-31.73828125,-51.7578125,-45.41015625,-33.203125
3,1734117398659.4688,-33.203125,-35.64453125,-39.55078125,-31.25
4,1734117398663.375,-27.83203125,-34.1796875,-38.57421875,-15.13671875
5,1734117398667.2812,-27.34375,-33.69140625,-45.8984375,-8.7890625
6,1734117398671.1875,-34.1796875,-34.1796875,-48.828125,-25.390625
7,1734117398675.0938,-28.3203125,-34.1796875,-45.41015625,-15.13671875
8,1734117398679,-26.85546875,-29.78515625,-41.9921875,-7.8125
9,1734117398682.9062,-34.66796875,-30.76171875,-46.38671875,-29.78515625
10,1734117398686.8125,-36.62109375,-42.96875,-46.875,-34.1796875
11,1734117398690.7188,-28.80859375,-42.48046875,-40.0390625,-19.53125
0,1734117398694.625,-20.5078125,-27.83203125,-40.52734375,-11.71875
1,1734117398698.5312,-36.1328125,-32.71484375,-48.828125,-23.92578125
2,1734117398702.4375,-36.1328125,-35.15625,-48.33984375,-23.92578125
3,1734117398706.3438,-26.3671875,-31.73828125,-40.0390625,-18.5546875
4,1734117398710.25,-24.90234375,-35.15625,-43.9453125,-22.4609375
5,1734117398714.1562,-19.53125,-40.0390625,-47.36328125,-16.11328125
6,1734117398718.0625,-20.99609375,-44.43359375,-45.41015625,-3.41796875
7,1734117398721.9688,-13.671875,-40.0390625,-43.9453125,10.25390625
8,1734117398725.875,-16.11328125,-40.52734375,-48.828125,16.11328125
9,1734117398729.7812,-5.37109375,-46.38671875,-51.26953125,14.16015625
10,1734117398733.6875,4.39453125,-42.48046875,-47.36328125,17.578125
11,1734117398737.5938,0.9765625,-48.828125,-44.43359375,17.08984375
0,1734117398741.5,10.25390625,-56.15234375,-38.57421875,14.6484375
1,1734117398745.4062,16.11328125,-47.36328125,-44.921875,11.23046875
2,1734117398749.3125,9.765625,-44.43359375,-43.9453125,5.37109375
3,1734117398753.2188,9.765625,-44.921875,-44.921875,9.27734375
4,1734117398757.125,7.32421875,-41.9921875,-55.17578125,17.08984375
5,1734117398761.0312,5.859375,-41.015625,-48.33984375,19.04296875
6,1734117398764.9375,-2.9296875,-42.48046875,-45.8984375,14.16015625
7,1734117398768.8438,0,-50.78125,-52.24609375,11.23046875
8,1734117398772.75,-1.953125,-56.640625,-50.29296875,11.23046875
9,1734117398776.6562,-11.71875,-42.48046875,-45.41015625,16.11328125
10,1734117398780.5625,-14.16015625,-37.59765625,-42.48046875,33.203125
11,1734117398784.4688,-13.671875,-46.38671875,-44.43359375,31.73828125
0,1734117398788.375,-9.27734375,-57.6171875,-48.828125,8.30078125
1,1734117398792.2812,-4.39453125,-62.01171875,-46.875,13.18359375
2,1734117398796.1875,3.90625,-51.7578125,-43.45703125,30.2734375
3,1734117398800.0938,8.30078125,-49.31640625,-41.9921875,39.0625
4,1734117398804,16.6015625,-54.19921875,-43.9453125,28.80859375
5,1734117398807.9062,23.4375,-48.828125,-43.9453125,20.99609375
6,1734117398811.8125,15.13671875,-47.36328125,-41.9921875,11.23046875
7,1734117398815.7188,14.16015625,-47.8515625,-48.828125,16.6015625
8,1734117398819.625,10.25390625,-48.33984375,-50.29296875,28.3203125
9,1734117398823.5312,8.30078125,-49.8046875,-45.8984375,24.90234375
10,1734117398827.4375,3.90625,-55.17578125,-46.875,23.4375
11,1734117398831.3438,-4.39453125,-60.546875,-43.9453125,29.296875
0,1734117398835.25,-3.90625,-60.05859375,-42.48046875,36.62109375
1,1734117398839.1562,-2.44140625,-62.98828125,-48.33984375,22.94921875
2,1734117398843.0625,5.37109375,-53.22265625,-49.31640625,17.08984375
3,1734117398846.9688,14.6484375,-36.1328125,-46.875,25.87890625
4,1734117398850.875,16.11328125,-36.62109375,-46.875,31.25
5,1734117398854.7812,8.7890625,-41.9921875,-46.875,46.38671875
6,1734117398858.6875,-4.8828125,-40.52734375,-52.734375,37.59765625
7,1734117398862.5938,-5.37109375,-46.875,-51.7578125,17.578125
8,1734117398866.5,3.90625,-49.31640625,-41.50390625,20.01953125
9,1734117398870.4062,3.90625,-36.1328125,-36.1328125,31.73828125
10,1734117398874.3125,8.30078125,-30.76171875,-40.52734375,17.578125
11,1734117398878.2188,9.765625,-35.15625,-46.875,-0.48828125
0,1734117398882.125,4.8828125,-40.0390625,-45.41015625,1.46484375
1,1734117398886.0312,1.46484375,-40.52734375,-43.45703125,4.39453125
2,1734117398889.9375,0.48828125,-46.38671875,-45.8984375,3.90625
3,1734117398893.8438,-2.44140625,-46.38671875,-47.8515625,-2.44140625
4,1734117398897.75,-7.32421875,-42.48046875,-46.38671875,10.7421875
5,1734117398901.6562,-4.39453125,-46.38671875,-43.9453125,11.71875
6,1734117398905.5625,-1.46484375,-44.43359375,-44.43359375,13.671875
7,1734117398909.4688,4.8828125,-38.57421875,-45.8984375,21.484375
8,1734117398913.375,16.11328125,-33.69140625,-43.9453125,32.71484375
9,1734117398917.2812,9.27734375,-41.015625,-41.9921875,38.0859375
10,1734117398921.1875,4.8828125,-35.64453125,-41.9921875,38.57421875
11,1734117398925.0938,6.8359375,-26.85546875,-44.43359375,26.85546875
0,1734117398929,16.11328125,-27.83203125,-42.96875,26.3671875
1,1734117398932.9062,12.20703125,-25.87890625,-37.59765625,29.78515625
2,1734117398936.8125,7.32421875,-30.2734375,-39.55078125,12.6953125
3,1734117398940.7188,13.18359375,-35.15625,-39.0625,15.13671875
4,1734117398944.625,10.25390625,-41.50390625,-35.15625,17.08984375
5,1734117398948.5312,8.7890625,-40.0390625,-40.0390625,17.08984375
6,1734117398952.4375,18.5546875,-33.203125,-42.48046875,14.16015625
7,1734117398956.3438,3.90625,-36.62109375,-38.57421875,5.37109375
8,1734117398960.25,-9.27734375,-40.0390625,-40.52734375,12.20703125
9,1734117398964.1562,-9.765625,-38.57421875,-40.0390625,15.13671875
10,1734117398968.0625,-15.625,-34.66796875,-40.52734375,-15.13671875
11,1734117398971.9688,-5.859375,-40.52734375,-37.59765625,-15.13671875
0,1734117398975.875,2.44140625,-48.828125,-40.0390625,1.953125
1,1734117398979.7812,8.7890625,-35.64453125,-43.9453125,0.9765625
2,1734117398983.6875,7.32421875,-24.4140625,-34.66796875,16.6015625
3,1734117398987.5938,6.34765625,-24.90234375,-29.296875,41.50390625
4,1734117398991.5,1.953125,-28.80859375,-38.0859375,28.80859375
5,1734117398995.4062,-7.32421875,-42.48046875,-41.50390625,9.27734375
6,1734117398999.3125,7.32421875,-37.59765625,-39.0625,16.6015625
7,1734117399003.2188,4.39453125,-29.78515625,-38.0859375,7.32421875
8,1734117399007.125,-8.30078125,-36.62109375,-43.9453125,2.9296875
9,1734117399011.0312,-12.6953125,-35.15625,-51.26953125,2.44140625
10,1734117399014.9375,-0.48828125,-37.109375,-47.36328125,0.48828125
11,1734117399018.8438,4.8828125,-38.57421875,-39.55078125,8.30078125
0,1734117399022.75,-24.90234375,-43.45703125,-41.50390625,13.18359375
1,1734117399026.6562,-16.6015625,-46.875,-47.36328125,-13.671875
2,1734117399030.5625,0,-34.1796875,-42.48046875,-9.765625
3,1734117399034.4688,3.41796875,-30.2734375,-40.52734375,22.94921875
4,1734117399038.375,1.953125,-31.73828125,-42.96875,22.4609375
5,1734117399042.2812,-13.18359375,-36.1328125,-39.0625,11.23046875
6,1734117399046.1875,-7.8125,-44.43359375,-34.1796875,7.8125
7,1734117399050.0938,-7.32421875,-35.64453125,-34.1796875,11.71875
8,1734117399054,-11.71875,-26.85546875,-36.62109375,8.7890625
9,1734117399057.9062,-14.16015625,-32.71484375,-44.43359375,-10.7421875
10,1734117399061.8125,-25.87890625,-40.52734375,-48.33984375,-16.6015625
11,1734117399065.7188,-32.2265625,-36.62109375,-42.48046875,-12.6953125
0,1734117399069.625,-27.34375,-44.43359375,-41.50390625,-25.390625
1,1734117399073.5312,-28.80859375,-61.5234375,-42.48046875,-33.69140625
2,1734117399077.4375,-37.109375,-46.38671875,-39.0625,-29.296875
3,1734117399081.3438,-30.76171875,-28.80859375,-37.59765625,-18.06640625
4,1734117399085.25,-26.3671875,-34.66796875,-39.55078125,-7.8125
5,1734117399089.1562,-33.203125,-35.15625,-38.57421875,-7.32421875
6,1734117399093.0625,-46.38671875,-27.34375,-42.48046875,-21.484375
7,1734117399096.9688,-36.62109375,-33.203125,-41.9921875,-22.4609375
8,1734117399100.875,-41.50390625,-41.9921875,-42.48046875,-23.4375
9,1734117399104.7812,-67.3828125,-41.9921875,-41.9921875,-34.1796875
10,1734117399108.6875,-40.0390625,-46.38671875,-39.55078125,-32.71484375
11,1734117399112.5938,-20.5078125,-40.0390625,-39.55078125,-31.25
0,1734117399116.5,-41.9921875,-28.80859375,-39.55078125,-22.4609375
1,1734117399120.4062,-31.73828125,-38.57421875,-40.0390625,-9.765625
2,1734117399124.3125,-30.2734375,-46.875,-41.015625,1.953125
3,1734117399128.2188,-29.296875,-41.015625,-43.45703125,4.39453125
4,1734117399132.125,-13.671875,-35.64453125,-41.015625,2.9296875
5,1734117399136.0312,-6.8359375,-33.203125,-37.59765625,-2.44140625
6,1734117399139.9375,-12.6953125,-34.1796875,-41.9921875,-15.13671875
7,1734117399143.8438,-15.13671875,-38.57421875,-47.36328125,-7.32421875
8,1734117399147.75,-19.53125,-40.0390625,-45.8984375,-6.8359375
9,1734117399151.6562,-10.7421875,-37.109375,-48.828125,-9.765625
10,1734117399155.5625,1.953125,-44.921875,-49.31640625,-0.9765625
11,1734117399159.4688,-3.90625,-46.38671875,-43.9453125,-1.953125
0,1734117399163.375,-13.18359375,-36.1328125,-41.9921875,6.8359375
1,1734117399167.2812,1.46484375,-35.15625,-45.41015625,3.90625
2,1734117399171.1875,2.9296875,-41.015625,-47.8515625,-0.48828125
3,1734117399175.0938,-2.44140625,-40.0390625,-46.38671875,4.8828125
4,1734117399179,1.46484375,-38.57421875,-39.0625,6.8359375
5,1734117399182.9062,-1.953125,-36.1328125,-43.45703125,5.37109375
6,1734117399186.8125,3.90625,-41.015625,-48.828125,14.6484375
7,1734117399190.7188,5.859375,-49.31640625,-44.43359375,20.5078125
8,1734117399194.625,5.859375,-35.64453125,-45.41015625,12.20703125
9,1734117399198.5312,9.27734375,-36.62109375,-49.31640625,8.7890625
10,1734117399202.4375,8.30078125,-43.9453125,-45.8984375,7.8125
11,1734117399206.3438,9.27734375,-39.0625,-45.8984375,0
0,1734117399210.25,3.41796875,-41.50390625,-52.24609375,-13.671875
1,1734117399214.1562,0,-39.55078125,-49.8046875,9.27734375
2,1734117399218.0625,15.13671875,-37.109375,-46.875,24.90234375
3,1734117399221.9688,11.71875,-48.828125,-45.8984375,18.06640625
4,1734117399225.875,5.859375,-39.0625,-42.96875,22.94921875
5,1734117399229.7812,4.8828125,-29.78515625,-43.45703125,22.94921875
6,1734117399233.6875,-8.30078125,-38.0859375,-49.8046875,17.578125
7,1734117399237.5938,-7.8125,-42.96875,-52.24609375,11.71875
8,1734117399241.5,1.46484375,-41.015625,-51.7578125,25.390625
9,1734117399245.4062,6.34765625,-32.2265625,-46.875,32.2265625
10,1734117399249.3125,7.8125,-32.71484375,-43.9453125,16.11328125
11,1734117399253.2188,7.32421875,-40.0390625,-47.8515625,10.7421875
0,1734117399257.125,4.8828125,-31.73828125,-48.828125,1.953125
1,1734117399261.0312,-3.90625,-29.296875,-53.7109375,-9.27734375
2,1734117399264.9375,0.48828125,-41.50390625,-51.26953125,6.34765625
3,1734117399268.8438,12.6953125,-48.33984375,-48.828125,14.6484375
4,1734117399272.75,8.30078125,-44.921875,-45.8984375,11.23046875
5,1734117399276.6562,9.765625,-39.55078125,-38.0859375,27.34375
6,1734117399280.5625,18.5546875,-34.66796875,-36.1328125,34.1796875
7,1734117399284.4688,10.25390625,-39.0625,-39.0625,26.85546875
8,1734117399288.375,6.34765625,-47.36328125,-41.9921875,23.4375
9,1734117399292.2812,6.8359375,-40.0390625,-37.59765625,16.6015625
10,1734117399296.1875,-5.859375,-31.25,-36.62109375,0
11,1734117399300.0938,-2.9296875,-37.59765625,-37.59765625,14.6484375
0,1734117399304,6.8359375,-51.26953125,-39.55078125,41.50390625
1,1734117399307.9062,2.9296875,-55.17578125,-40.52734375,34.66796875
2,1734117399311.8125,4.8828125,-46.875,-41.015625,24.4140625
3,1734117399315.7188,0.9765625,-43.9453125,-43.9453125,22.94921875
4,1734117399319.625,-2.9296875,-44.43359375,-43.9453125,26.85546875
5,1734117399323.5312,-12.20703125,-41.50390625,-41.9921875,21.484375
6,1734117399327.4375,-10.25390625,-34.1796875,-41.015625,15.625
7,1734117399331.3438,4.39453125,-43.45703125,-42.96875,15.625
8,1734117399335.25,0.9765625,-47.8515625,-37.109375,16.11328125
9,1734117399339.1562,0.48828125,-32.2265625,-32.2265625,30.2734375
10,1734117399343.0625,-9.27734375,-34.1796875,-41.50390625,25.390625
11,1734117399346.9688,-7.32421875,-38.0859375,-42.96875,19.04296875
0,1734117399350.875,-5.859375,-46.38671875,-40.52734375,11.23046875
1,1734117399354.7812,-17.08984375,-48.828125,-43.45703125,12.6953125
2,1734117399358.6875,-7.8125,-39.55078125,-41.9921875,18.5546875
3,1734117399362.5938,-7.8125,-39.55078125,-40.52734375,10.7421875
4,1734117399366.5,-20.99609375,-41.015625,-41.50390625,-3.90625
5,1734117399370.4062,-14.16015625,-44.43359375,-40.52734375,-14.6484375
6,1734117399374.3125,-20.99609375,-37.59765625,-38.0859375,-23.4375
7,1734117399378.2188,-29.78515625,-30.2734375,-40.52734375,-21.484375
8,1734117399382.125,-20.99609375,-33.203125,-38.0859375,-9.765625
9,1734117399386.0312,-37.109375,-35.64453125,-38.0859375,-14.6484375
10,1734117399389.9375,-40.52734375,-36.62109375,-43.45703125,-11.71875
11,1734117399393.8438,-27.34375,-42.48046875,-42.96875,-18.5546875
0,1734117399397.75,-21.484375,-39.0625,-43.9453125,-15.625
1,1734117399401.6562,-26.3671875,-38.0859375,-48.33984375,-8.30078125
2,1734117399405.5625,-31.73828125,-40.52734375,-44.43359375,-8.7890625
3,1734117399409.4688,-35.15625,-33.69140625,-39.0625,7.8125
4,1734117399413.375,-27.34375,-33.69140625,-37.59765625,10.25390625
5,1734117399417.2812,-26.3671875,-41.9921875,-39.55078125,2.9296875
6,1734117399421.1875,-32.71484375,-39.55078125,-42.96875,1.953125
7,1734117399425.0938,-29.78515625,-36.1328125,-37.109375,-8.30078125
8,1734117399429,-24.90234375,-37.109375,-32.71484375,-0.48828125
9,1734117399432.9062,-35.64453125,-36.1328125,-42.96875,-11.23046875
10,1734117399436.8125,-40.0390625,-42.48046875,-47.36328125,-30.2734375
11,1734117399440.7188,-23.4375,-38.0859375,-40.52734375,-11.23046875
0,1734117399444.625,-15.13671875,-29.78515625,-40.0390625,10.25390625
1,1734117399448.5312,-22.94921875,-27.83203125,-41.9921875,5.37109375
2,1734117399452.4375,-26.3671875,-28.3203125,-44.43359375,-6.34765625
3,1734117399456.3438,-26.3671875,-34.1796875,-48.33984375,-2.44140625
4,1734117399460.25,-11.23046875,-40.0390625,-49.31640625,-2.44140625
5,1734117399464.1562,-2.44140625,-42.48046875,-44.43359375,0.48828125
6,1734117399468.0625,-16.11328125,-43.45703125,-43.45703125,0.9765625
7,1734117399471.9688,-8.30078125,-40.52734375,-43.45703125,3.90625
8,1734117399475.875,-3.41796875,-42.48046875,-42.48046875,10.7421875
9,1734117399479.7812,-7.32421875,-51.26953125,-39.55078125,-3.90625
10,1734117399483.6875,-7.32421875,-48.33984375,-38.57421875,-13.18359375
11,1734117399487.5938,2.44140625,-38.0859375,-42.48046875,6.8359375
0,1734117399491.5,-1.46484375,-40.52734375,-42.96875,18.5546875
1,1734117399495.4062,-0.9765625,-44.921875,-42.96875,11.23046875
2,1734117399499.3125,9.765625,-40.0390625,-38.57421875,22.4609375
3,1734117399503.2188,15.625,-34.66796875,-33.203125,27.83203125
4,1734117399507.125,10.25390625,-36.62109375,-35.15625,23.4375
5,1734117399511.0312,8.30078125,-44.43359375,-43.45703125,22.94921875
6,1734117399514.9375,12.20703125,-54.19921875,-47.36328125,20.01953125
7,1734117399518.8438,6.8359375,-58.10546875,-43.9453125,21.97265625
8,1734117399522.75,1.46484375,-48.33984375,-44.43359375,25.87890625
9,1734117399526.6562,10.25390625,-41.015625,-44.43359375,18.06640625
10,1734117399530.5625,-2.9296875,-41.50390625,-42.48046875,14.16015625
11,1734117399534.4688,1.46484375,-39.55078125,-48.828125,23.92578125
0,1734117399538.375,20.01953125,-36.1328125,-51.7578125,20.99609375
1,1734117399542.2812,21.97265625,-36.62109375,-45.8984375,19.04296875
2,1734117399546.1875,29.296875,-35.64453125,-45.41015625,29.296875
3,1734117399550.0938,27.34375,-39.55078125,-43.45703125,17.08984375
4,1734117399554,24.4140625,-52.734375,-42.48046875,11.23046875
5,1734117399557.9062,30.2734375,-49.31640625,-38.57421875,29.78515625
6,1734117399561.8125,7.8125,-37.109375,-31.73828125,33.203125
7,1734117399565.7188,-10.7421875,-43.45703125,-35.15625,25.87890625
8,1734117399569.625,0.9765625,-49.8046875,-41.015625,20.99609375
9,1734117399573.5312,2.9296875,-44.43359375,-38.0859375,25.87890625
10,1734117399577.4375,-3.41796875,-40.52734375,-34.66796875,24.90234375
11,1734117399581.3438,-5.37109375,-40.52734375,-41.50390625,11.71875
0,1734117399585.25,1.46484375,-54.19921875,-42.96875,9.765625
1,1734117399589.1562,8.7890625,-51.26953125,-39.0625,14.16015625
2,1734117399593.0625,11.71875,-36.1328125,-39.0625,21.97265625
3,1734117399596.9688,10.25390625,-44.43359375,-40.0390625,5.37109375
4,1734117399600.875,8.30078125,-54.6875,-47.36328125,-2.9296875
5,1734117399604.7812,8.30078125,-52.24609375,-44.43359375,29.296875
6,1734117399608.6875,-2.44140625,-60.05859375,-39.55078125,34.1796875
7,1734117399612.5938,-7.8125,-60.546875,-38.57421875,18.5546875
8,1734117399616.5,-1.46484375,-49.8046875,-33.69140625,20.01953125
9,1734117399620.4062,5.37109375,-45.41015625,-31.25,29.78515625
10,1734117399624.3125,-2.9296875,-40.52734375,-33.203125,14.6484375
11,1734117399628.2188,-2.44140625,-43.45703125,-36.62109375,10.25390625
0,1734117399632.125,4.39453125,-39.55078125,-41.015625,23.92578125
1,1734117399636.0312,-4.8828125,-39.55078125,-41.9921875,9.27734375
2,1734117399639.9375,1.953125,-51.26953125,-43.45703125,-1.953125
3,1734117399643.8438,2.9296875,-47.36328125,-43.45703125,0
4,1734117399647.75,-3.41796875,-39.55078125,-41.50390625,0
5,1734117399651.6562,5.859375,-42.48046875,-40.0390625,7.8125
6,1734117399655.5625,-5.37109375,-39.0625,-40.52734375,3.90625
7,1734117399659.4688,-16.11328125,-39.55078125,-40.0390625,-8.30078125
8,1734117399663.375,2.9296875,-51.7578125,-38.0859375,-2.9296875
9,1734117399667.2812,6.34765625,-50.29296875,-40.52734375,3.90625
10,1734117399671.1875,-21.97265625,-27.34375,-41.9921875,-3.90625
11,1734117399675.0938,-8.7890625,-30.2734375,-43.9453125,14.16015625
0,1734117399679,26.3671875,-54.19921875,-38.0859375,32.71484375
1,1734117399682.9062,16.11328125,-57.6171875,-33.203125,26.3671875
2,1734117399686.8125,1.46484375,-52.734375,-35.64453125,18.5546875
3,1734117399690.7188,-3.41796875,-43.9453125,-39.55078125,11.71875
4,1734117399694.625,1.953125,-41.015625,-41.015625,11.71875
5,1734117399698.5312,-8.30078125,-41.015625,-38.57421875,12.6953125
6,1734117399702.4375,-20.5078125,-45.8984375,-41.50390625,-5.859375
7,1734117399706.3438,-17.08984375,-42.96875,-41.015625,-13.671875
8,1734117399710.25,-15.13671875,-36.62109375,-40.0390625,-4.8828125
9,1734117399714.1562,-18.5546875,-39.55078125,-43.45703125,-6.34765625
10,1734117399718.0625,-26.85546875,-48.33984375,-39.55078125,-15.13671875
11,1734117399721.9688,-21.97265625,-44.921875,-38.0859375,-22.94921875
0,1734117399725.875,-28.80859375,-34.66796875,-36.1328125,-4.39453125
1,1734117399729.7812,-44.43359375,-34.1796875,-40.52734375,-6.8359375
2,1734117399733.6875,-37.109375,-39.0625,-45.41015625,-21.97265625
3,1734117399737.5938,-35.15625,-38.0859375,-43.9453125,-21.97265625
4,1734117399741.5,-44.921875,-39.0625,-42.48046875,-13.671875
5,1734117399745.4062,-79.58984375,-45.8984375,-37.59765625,-17.08984375
6,1734117399749.3125,-39.55078125,-37.109375,-44.43359375,-35.64453125
7,1734117399753.2188,-2.44140625,-25.87890625,-46.38671875,-27.83203125
8,1734117399757.125,-31.25,-23.92578125,-36.1328125,-26.85546875
9,1734117399761.0312,-34.1796875,-32.71484375,-33.69140625,-36.1328125
10,1734117399764.9375,-15.13671875,-41.015625,-37.109375,-39.55078125
11,1734117399768.8438,-25.390625,-40.52734375,-35.15625,-26.85546875
0,1734117399772.75,-28.3203125,-40.52734375,-33.69140625,-12.6953125
1,1734117399776.6562,-18.06640625,-42.96875,-31.73828125,-9.765625
2,1734117399780.5625,-19.53125,-51.7578125,-29.78515625,-14.16015625
3,1734117399784.4688,-11.71875,-44.921875,-30.76171875,2.9296875
4,1734117399788.375,-13.18359375,-30.2734375,-29.78515625,4.39453125
5,1734117399792.2812,-20.5078125,-27.34375,-29.78515625,-9.765625
6,1734117399796.1875,-9.27734375,-27.83203125,-31.73828125,7.8125
7,1734117399800.0938,-6.34765625,-28.80859375,-32.71484375,15.625
8,1734117399804,-6.8359375,-28.80859375,-34.1796875,12.6953125
9,1734117399807.9062,-5.859375,-34.66796875,-34.66796875,-1.46484375
10,1734117399811.8125,-11.23046875,-47.36328125,-36.62109375,-12.20703125
11,1734117399815.7188,-7.8125,-53.22265625,-41.50390625,-3.41796875
0,1734117399819.625,-9.765625,-44.43359375,-46.38671875,-0.9765625
1,1734117399823.5312,-4.39453125,-40.0390625,-45.41015625,3.90625
2,1734117399827.4375,14.6484375,-39.0625,-39.55078125,11.23046875
3,1734117399831.3438,21.97265625,-36.1328125,-34.1796875,20.99609375
4,1734117399835.25,23.92578125,-34.66796875,-32.71484375,28.80859375
5,1734117399839.1562,14.6484375,-35.64453125,-34.66796875,22.4609375
6,1734117399843.0625,-15.13671875,-42.96875,-32.71484375,8.7890625
7,1734117399846.9688,1.46484375,-43.45703125,-28.80859375,19.53125
8,1734117399850.875,10.25390625,-34.66796875,-36.1328125,17.08984375
9,1734117399854.7812,-11.23046875,-40.52734375,-44.43359375,-7.32421875
10,1734117399858.6875,-11.71875,-49.31640625,-42.96875,5.859375
11,1734117399862.5938,0,-49.8046875,-42.96875,10.25390625
0,1734117399866.5,-13.671875,-51.7578125,-44.921875,-3.41796875
1,1734117399870.4062,-13.671875,-52.734375,-47.36328125,0.48828125
2,1734117399874.3125,12.20703125,-45.8984375,-46.38671875,14.16015625
3,1734117399878.2188,7.32421875,-40.52734375,-47.8515625,9.27734375
4,1734117399882.125,0,-40.52734375,-50.78125,11.23046875
5,1734117399886.0312,10.25390625,-42.48046875,-49.8046875,18.5546875
6,1734117399889.9375,12.20703125,-41.50390625,-47.8515625,13.671875
7,1734117399893.8438,3.90625,-41.9921875,-45.8984375,24.90234375
8,1734117399897.75,2.44140625,-58.59375,-43.9453125,11.71875
9,1734117399901.6562,-6.34765625,-53.22265625,-42.48046875,-4.8828125
10,1734117399905.5625,9.27734375,-38.0859375,-38.0859375,27.34375
11,1734117399909.4688,15.13671875,-44.43359375,-36.1328125,37.109375
0,1734117399913.375,8.7890625,-42.96875,-38.57421875,23.4375
1,1734117399917.2812,17.08984375,-35.64453125,-37.109375,31.25
2,1734117399921.1875,15.625,-36.1328125,-39.55078125,31.25
3,1734117399925.0938,20.5078125,-36.1328125,-44.921875,25.87890625
4,1734117399929,15.625,-27.34375,-43.45703125,29.296875
5,1734117399932.9062,17.578125,-23.4375,-37.109375,32.2265625
6,1734117399936.8125,16.11328125,-28.80859375,-38.0859375,30.76171875
7,1734117399940.7188,4.39453125,-33.69140625,-39.55078125,11.71875
8,1734117399944.625,-0.9765625,-47.8515625,-39.55078125,1.953125
9,1734117399948.5312,-16.6015625,-52.24609375,-37.59765625,11.71875
10,1734117399952.4375,-16.11328125,-44.43359375,-35.64453125,8.7890625
11,1734117399956.3438,-6.34765625,-47.36328125,-40.52734375,-5.37109375
0,1734117399960.25,-7.32421875,-49.8046875,-42.96875,1.953125
1,1734117399964.1562,-9.765625,-47.36328125,-45.8984375,-0.9765625
2,1734117399968.0625,-20.99609375,-44.43359375,-46.38671875,-8.7890625
3,1734117399971.9688,-5.859375,-47.8515625,-45.8984375,-5.37109375
4,1734117399975.875,2.9296875,-44.43359375,-42.96875,0.48828125
5,1734117399979.7812,-8.7890625,-37.59765625,-34.66796875,19.53125
6,1734117399983.6875,-9.765625,-41.015625,-37.59765625,24.4140625
7,1734117399987.5938,-17.578125,-46.38671875,-37.59765625,20.01953125
8,1734117399991.5,-23.92578125,-46.38671875,-30.2734375,2.44140625
9,1734117399995.4062,-14.6484375,-42.96875,-37.109375,-1.953125
10,1734117399999.3125,-9.27734375,-43.45703125,-42.48046875,11.23046875
11,1734117400003.2188,-8.30078125,-43.9453125,-46.875,-0.48828125
0,1734117400007.125,-16.6015625,-37.109375,-47.8515625,0.48828125
1,1734117400011.0312,-14.6484375,-32.2265625,-41.50390625,8.7890625
2,1734117400014.9375,-18.5546875,-25.87890625,-39.0625,4.8828125
3,1734117400018.8438,-27.83203125,-27.34375,-41.50390625,2.44140625
4,1734117400022.75,-19.53125,-36.1328125,-37.109375,5.37109375
5,1734117400026.6562,-17.08984375,-29.78515625,-35.15625,-1.46484375
6,1734117400030.5625,-22.94921875,-29.296875,-43.45703125,-3.90625
7,1734117400034.4688,-34.1796875,-32.71484375,-44.43359375,-15.625
8,1734117400038.375,-38.57421875,-35.64453125,-42.96875,-22.4609375
9,1734117400042.2812,-44.43359375,-30.2734375,-41.50390625,-27.83203125
10,1734117400046.1875,-55.6640625,-30.76171875,-39.55078125,-53.22265625
11,1734117400050.0938,-30.2734375,-29.296875,-44.43359375,-30.76171875
0,1734117400054,-8.7890625,-15.13671875,-42.48046875,-4.8828125
1,1734117400057.9062,-26.3671875,-17.578125,-42.48046875,-8.7890625
2,1734117400061.8125,-18.06640625,-26.3671875,-43.9453125,-14.6484375
3,1734117400065.7188,-16.11328125,-30.2734375,-44.43359375,-24.90234375
4,1734117400069.625,-21.484375,-32.2265625,-44.43359375,-15.13671875
5,1734117400073.5312,-25.390625,-33.203125,-43.9453125,-10.7421875
6,1734117400077.4375,-31.25,-37.109375,-43.45703125,-24.90234375
7,1734117400081.3438,-33.69140625,-47.36328125,-41.50390625,-16.6015625
8,1734117400085.25,-36.1328125,-38.57421875,-40.0390625,-20.01953125
9,1734117400089.1562,-27.83203125,-24.4140625,-41.9921875,-25.87890625
10,1734117400093.0625,-37.109375,-28.3203125,-44.921875,-20.5078125
11,1734117400096.9688,-19.53125,-29.78515625,-41.50390625,-21.484375
0,1734117400100.875,-1.46484375,-31.73828125,-38.0859375,-25.390625
1,1734117400104.7812,-5.37109375,-34.66796875,-40.52734375,-21.97265625
2,1734117400108.6875,-10.25390625,-36.1328125,-45.8984375,-16.6015625
3,1734117400112.5938,-12.6953125,-39.0625,-43.9453125,-18.5546875
4,1734117400116.5,-13.18359375,-38.57421875,-43.9453125,-15.13671875
5,1734117400120.4062,-6.8359375,-38.0859375,-47.36328125,-2.44140625
6,1734117400124.3125,1.953125,-35.15625,-44.43359375,-12.6953125
7,1734117400128.2188,-2.44140625,-31.25,-43.45703125,-23.92578125
8,1734117400132.125,-15.13671875,-40.0390625,-40.0390625,-20.99609375
9,1734117400136.0312,-19.53125,-42.96875,-42.48046875,-2.9296875
10,1734117400139.9375,-23.4375,-34.1796875,-49.8046875,-4.8828125
11,1734117400143.8438,-15.13671875,-32.71484375,-51.26953125,-9.27734375
0,1734117400147.75,0.48828125,-35.15625,-49.8046875,8.30078125
1,1734117400151.6562,0.9765625,-39.55078125,-51.7578125,2.9296875
2,1734117400155.5625,2.44140625,-39.0625,-50.29296875,-0.48828125
3,1734117400159.4688,-3.90625,-43.9453125,-44.921875,15.625
4,1734117400163.375,1.46484375,-52.734375,-46.875,-0.48828125
5,1734117400167.2812,9.765625,-43.45703125,-44.921875,-7.8125
6,1734117400171.1875,1.953125,-38.0859375,-46.38671875,-6.8359375
7,1734117400175.0938,-11.23046875,-41.50390625,-46.38671875,-10.25390625
8,1734117400179,-10.25390625,-43.9453125,-45.8984375,-0.9765625
9,1734117400182.9062,2.44140625,-46.875,-48.828125,4.39453125
10,1734117400186.8125,-1.46484375,-48.828125,-47.8515625,-5.859375
11,1734117400190.7188,-7.8125,-50.29296875,-50.29296875,-10.25390625
0,1734117400194.625,-0.9765625,-49.31640625,-54.6875,7.32421875
1,1734117400198.5312,4.39453125,-48.33984375,-51.26953125,20.5078125
2,1734117400202.4375,2.9296875,-46.875,-52.24609375,17.08984375
3,1734117400206.3438,2.9296875,-51.26953125,-49.31640625,0
4,1734117400210.25,2.9296875,-61.5234375,-46.875,12.6953125
5,1734117400214.1562,-4.39453125,-50.29296875,-47.36328125,21.97265625
6,1734117400218.0625,-4.8828125,-43.45703125,-44.43359375,9.765625
7,1734117400221.9688,-13.671875,-49.8046875,-43.9453125,20.01953125
8,1734117400225.875,-17.08984375,-51.7578125,-45.8984375,9.27734375
9,1734117400229.7812,-5.37109375,-48.33984375,-49.31640625,-11.71875
10,1734117400233.6875,6.34765625,-47.8515625,-43.45703125,19.04296875
11,1734117400237.5938,6.8359375,-49.8046875,-42.96875,32.71484375
0,1734117400241.5,-12.20703125,-41.50390625,-44.921875,31.73828125
1,1734117400245.4062,-27.34375,-46.38671875,-43.9453125,26.3671875
2,1734117400249.3125,0.9765625,-47.36328125,-38.0859375,18.5546875
3,1734117400253.2188,3.90625,-48.33984375,-34.66796875,12.6953125
4,1734117400257.125,-6.8359375,-61.5234375,-40.0390625,1.953125
5,1734117400261.0312,-1.46484375,-61.5234375,-36.62109375,4.39453125
6,1734117400264.9375,-4.39453125,-54.6875,-33.203125,11.23046875
7,1734117400268.8438,-10.25390625,-57.6171875,-35.15625,9.765625
8,1734117400272.75,-7.32421875,-53.22265625,-35.15625,-0.9765625
9,1734117400276.6562,-9.27734375,-40.0390625,-38.0859375,-1.46484375
10,1734117400280.5625,-11.23046875,-35.15625,-38.57421875,15.625
11,1734117400284.4688,0.48828125,-38.57421875,-37.109375,14.6484375
0,1734117400288.375,-6.8359375,-42.48046875,-38.0859375,-0.9765625
1,1734117400292.2812,-11.23046875,-43.45703125,-35.64453125,6.34765625
2,1734117400296.1875,1.46484375,-41.50390625,-33.69140625,12.6953125
3,1734117400300.0938,2.44140625,-36.62109375,-33.69140625,4.39453125
4,1734117400304,6.8359375,-45.41015625,-34.1796875,4.8828125
5,1734117400307.9062,5.859375,-49.8046875,-31.73828125,8.7890625
6,1734117400311.8125,19.04296875,-35.15625,-32.2265625,30.2734375
7,1734117400315.7188,31.73828125,-27.83203125,-33.203125,34.1796875
8,1734117400319.625,25.87890625,-31.73828125,-38.0859375,17.08984375
9,1734117400323.5312,20.99609375,-31.73828125,-40.52734375,10.25390625
10,1734117400327.4375,1.953125,-41.015625,-39.55078125,13.671875
11,1734117400331.3438,-9.27734375,-47.8515625,-41.015625,18.5546875
0,1734117400335.25,-3.41796875,-35.15625,-37.109375,14.6484375
1,1734117400339.1562,-10.25390625,-27.83203125,-34.66796875,14.16015625
2,1734117400343.0625,-12.6953125,-31.25,-34.1796875,7.8125
3,1734117400346.9688,-10.25390625,-38.57421875,-30.2734375,7.8125
4,1734117400350.875,-12.6953125,-40.52734375,-29.78515625,3.41796875
5,1734117400354.7812,-8.7890625,-40.0390625,-36.1328125,10.25390625
6,1734117400358.6875,1.953125,-33.203125,-41.9921875,25.87890625
7,1734117400362.5938,0,-39.0625,-45.8984375,2.44140625
8,1734117400366.5,-9.765625,-51.26953125,-50.78125,-9.765625
9,1734117400370.4062,-15.625,-36.1328125,-46.875,11.23046875
10,1734117400374.3125,-8.7890625,-26.85546875,-43.9453125,18.5546875
11,1734117400378.2188,-10.25390625,-35.64453125,-49.31640625,-7.32421875
0,1734117400382.125,-5.37109375,-35.15625,-48.828125,-7.32421875
1,1734117400386.0312,2.44140625,-36.1328125,-43.9453125,-1.953125
2,1734117400389.9375,-7.32421875,-49.31640625,-42.48046875,0.9765625
3,1734117400393.8438,0.9765625,-47.8515625,-43.45703125,10.7421875
4,1734117400397.75,-3.90625,-37.109375,-43.45703125,-5.859375
5,1734117400401.6562,0,-37.59765625,-41.015625,-0.9765625
6,1734117400405.5625,6.8359375,-38.57421875,-43.9453125,15.13671875
7,1734117400409.4688,-4.39453125,-41.9921875,-44.921875,-3.41796875
8,1734117400413.375,-4.8828125,-42.96875,-43.45703125,-14.6484375
9,1734117400417.2812,-12.6953125,-38.57421875,-41.50390625,-7.32421875
10,1734117400421.1875,-32.71484375,-40.52734375,-42.48046875,-19.04296875
11,1734117400425.0938,-34.66796875,-47.36328125,-47.36328125,-24.90234375
0,1734117400429,-18.06640625,-42.96875,-46.875,-9.765625
1,1734117400432.9062,-12.6953125,-45.41015625,-46.38671875,-9.765625
2,1734117400436.8125,-5.37109375,-49.8046875,-45.41015625,-2.44140625
3,1734117400440.7188,-14.16015625,-45.41015625,-47.8515625,4.8828125
4,1734117400444.625,-13.671875,-48.828125,-47.8515625,2.44140625
5,1734117400448.5312,0.9765625,-47.8515625,-46.875,14.6484375
6,1734117400452.4375,-8.7890625,-35.15625,-45.41015625,5.859375
7,1734117400456.3438,-17.578125,-37.109375,-40.52734375,-23.92578125
8,1734117400460.25,-25.87890625,-44.921875,-40.52734375,-25.87890625
9,1734117400464.1562,-42.48046875,-41.9921875,-37.59765625,-19.53125
10,1734117400468.0625,-44.43359375,-42.48046875,-38.0859375,-19.04296875
11,1734117400471.9688,-50.78125,-49.8046875,-45.41015625,-37.59765625
0,1734117400475.875,-41.50390625,-53.22265625,-47.8515625,-40.52734375
1,1734117400479.7812,-32.71484375,-44.43359375,-47.36328125,-25.87890625
2,1734117400483.6875,-32.71484375,-44.921875,-42.48046875,-31.25
3,1734117400487.5938,-26.3671875,-45.8984375,-39.0625,-22.4609375
4,1734117400491.5,-18.5546875,-31.25,-44.921875,-10.7421875
5,1734117400495.4062,-17.578125,-30.76171875,-45.8984375,-23.92578125
6,1734117400499.3125,-19.04296875,-37.109375,-41.9921875,-31.73828125
7,1734117400503.2188,-20.01953125,-33.203125,-41.015625,-21.97265625
8,1734117400507.125,-11.71875,-27.34375,-33.69140625,-19.04296875
9,1734117400511.0312,-12.20703125,-29.296875,-30.76171875,-22.94921875
10,1734117400514.9375,-34.66796875,-31.25,-33.203125,-9.27734375
11,1734117400518.8438,-22.4609375,-32.71484375,-37.109375,6.8359375
0,1734117400522.75,-6.34765625,-35.64453125,-47.36328125,3.90625
1,1734117400526.6562,-15.625,-38.57421875,-49.31640625,3.41796875
2,1734117400530.5625,-19.04296875,-44.921875,-42.96875,3.41796875
3,1734117400534.4688,2.44140625,-48.828125,-38.0859375,-3.41796875
4,1734117400538.375,1.953125,-39.0625,-41.9921875,-5.859375
5,1734117400542.2812,-17.578125,-38.0859375,-44.43359375,-7.32421875
6,1734117400546.1875,-10.25390625,-37.109375,-37.59765625,0
7,1734117400550.0938,2.44140625,-33.203125,-33.69140625,2.9296875
8,1734117400554,-0.48828125,-35.15625,-28.80859375,6.34765625
9,1734117400557.9062,-4.8828125,-41.9921875,-31.25,0.48828125
10,1734117400561.8125,11.23046875,-45.8984375,-35.15625,-4.39453125
11,1734117400565.7188,15.625,-41.015625,-33.69140625,5.37109375
0,1734117400569.625,10.25390625,-44.43359375,-34.1796875,18.5546875
1,1734117400573.5312,15.625,-41.015625,-36.1328125,15.625
2,1734117400577.4375,11.23046875,-32.2265625,-41.015625,0.9765625
3,1734117400581.3438,1.46484375,-33.69140625,-44.43359375,10.7421875
4,1734117400585.25,6.8359375,-31.73828125,-40.0390625,11.71875
5,1734117400589.1562,13.671875,-30.2734375,-37.59765625,12.20703125
6,1734117400593.0625,-12.6953125,-32.2265625,-40.52734375,21.97265625
7,1734117400596.9688,-10.7421875,-37.109375,-40.0390625,24.90234375
8,1734117400600.875,15.13671875,-47.8515625,-42.48046875,16.11328125
9,1734117400604.7812,6.8359375,-45.41015625,-42.48046875,21.484375
10,1734117400608.6875,14.16015625,-35.15625,-37.109375,32.2265625
11,1734117400612.5938,10.25390625,-39.55078125,-38.0859375,30.2734375
0,1734117400616.5,-5.37109375,-39.0625,-40.0390625,12.20703125
1,1734117400620.4062,-5.37109375,-33.69140625,-41.015625,0
2,1734117400624.3125,7.32421875,-33.69140625,-43.45703125,1.46484375
3,1734117400628.2188,5.859375,-35.64453125,-41.50390625,17.578125
4,1734117400632.125,6.34765625,-41.50390625,-42.96875,30.2734375
5,1734117400636.0312,13.671875,-48.33984375,-44.921875,9.27734375
6,1734117400639.9375,9.27734375,-46.875,-47.36328125,-2.9296875
7,1734117400643.8438,2.9296875,-40.52734375,-45.41015625,14.16015625
8,1734117400647.75,3.41796875,-43.45703125,-46.38671875,17.578125
9,1734117400651.6562,-1.953125,-48.33984375,-51.26953125,17.578125
10,1734117400655.5625,-1.953125,-44.43359375,-51.26953125,21.97265625
11,1734117400659.4688,0.9765625,-40.0390625,-47.8515625,22.94921875
0,1734117400663.375,-1.46484375,-46.875,-48.33984375,31.25
1,1734117400667.2812,7.8125,-53.22265625,-47.8515625,26.85546875
2,1734117400671.1875,18.06640625,-41.9921875,-41.9921875,24.90234375
3,1734117400675.0938,16.11328125,-33.69140625,-42.48046875,24.4140625
4,1734117400679,7.8125,-37.59765625,-41.50390625,17.578125
5,1734117400682.9062,9.27734375,-40.52734375,-41.50390625,20.99609375
6,1734117400686.8125,11.23046875,-45.41015625,-40.0390625,19.04296875
7,1734117400690.7188,17.578125,-48.33984375,-34.66796875,20.01953125
8,1734117400694.625,5.37109375,-39.55078125,-37.59765625,15.625
9,1734117400698.5312,-1.46484375,-35.64453125,-39.55078125,22.4609375
10,1734117400702.4375,7.32421875,-34.66796875,-38.0859375,20.01953125
11,1734117400706.3438,-2.44140625,-39.0625,-43.9453125,8.30078125
0,1734117400710.25,-4.8828125,-43.45703125,-43.9453125,11.71875
1,1734117400714.1562,-2.9296875,-39.55078125,-39.0625,-3.90625
2,1734117400718.0625,-23.4375,-37.59765625,-45.41015625,-13.671875
3,1734117400721.9688,-36.62109375,-41.9921875,-49.31640625,-2.44140625
4,1734117400725.875,-11.23046875,-40.52734375,-50.78125,1.953125
5,1734117400729.7812,4.39453125,-30.76171875,-44.43359375,-3.90625
6,1734117400733.6875,-2.44140625,-26.85546875,-33.203125,-10.7421875
7,1734117400737.5938,-11.23046875,-27.83203125,-35.15625,-17.578125
8,1734117400741.5,-21.484375,-43.45703125,-43.45703125,-12.20703125
9,1734117400745.4062,-28.80859375,-45.8984375,-41.50390625,-16.6015625
10,1734117400749.3125,-15.625,-33.203125,-36.1328125,-28.3203125
11,1734117400753.2188,-19.04296875,-37.59765625,-39.0625,-17.08984375
0,1734117400757.125,-26.85546875,-41.9921875,-39.0625,0
1,1734117400761.0312,-18.5546875,-38.57421875,-38.57421875,0.9765625
2,1734117400764.9375,-12.20703125,-37.59765625,-34.66796875,2.44140625
3,1734117400768.8438,-15.625,-38.57421875,-30.76171875,2.9296875
4,1734117400772.75,-20.01953125,-41.50390625,-38.0859375,-8.30078125
5,1734117400776.6562,-19.04296875,-41.50390625,-42.48046875,-22.4609375
6,1734117400780.5625,-27.83203125,-45.8984375,-40.52734375,-16.11328125
7,1734117400784.4688,-29.78515625,-43.9453125,-39.55078125,-14.16015625
8,1734117400788.375,-28.80859375,-36.1328125,-36.1328125,-19.04296875
9,1734117400792.2812,-33.203125,-32.2265625,-30.2734375,-7.8125
10,1734117400796.1875,-22.4609375,-30.2734375,-28.80859375,-3.41796875
11,1734117400800.0938,-17.578125,-36.62109375,-35.15625,-10.7421875
0,1734117400804,-6.34765625,-39.55078125,-34.66796875,-11.23046875
1,1734117400807.9062,-18.06640625,-42.48046875,-38.57421875,-6.34765625
2,1734117400811.8125,-21.97265625,-40.0390625,-41.9921875,-3.41796875
3,1734117400815.7188,-14.16015625,-40.0390625,-35.15625,-4.39453125
4,1734117400819.625,-16.6015625,-45.41015625,-37.59765625,-5.859375
5,1734117400823.5312,-12.6953125,-39.0625,-44.43359375,-6.8359375
6,1734117400827.4375,-12.20703125,-35.15625,-41.50390625,-12.6953125
7,1734117400831.3438,-5.859375,-32.2265625,-40.52734375,-18.06640625
8,1734117400835.25,6.8359375,-37.59765625,-43.9453125,-8.7890625
9,1734117400839.1562,10.25390625,-46.38671875,-43.9453125,5.37109375
10,1734117400843.0625,-2.44140625,-46.38671875,-52.24609375,-17.578125
11,1734117400846.9688,-10.25390625,-47.8515625,-55.6640625,-26.85546875
0,1734117400850.875,-1.953125,-41.50390625,-49.31640625,-10.25390625
1,1734117400854.7812,-10.25390625,-45.41015625,-54.6875,-7.32421875
2,1734117400858.6875,-6.34765625,-57.12890625,-54.6875,-1.953125
3,1734117400862.5938,4.8828125,-55.6640625,-52.734375,11.23046875
4,1734117400866.5,6.8359375,-54.19921875,-49.8046875,21.484375
5,1734117400870.4062,15.13671875,-47.8515625,-47.8515625,13.671875
6,1734117400874.3125,27.34375,-39.0625,-52.24609375,0.9765625
7,1734117400878.2188,9.27734375,-34.1796875,-50.78125,2.9296875
8,1734117400882.125,8.30078125,-33.69140625,-44.921875,11.71875
9,1734117400886.0312,16.6015625,-37.109375,-42.48046875,1.953125
10,1734117400889.9375,10.25390625,-42.96875,-43.9453125,-15.13671875
11,1734117400893.8438,7.8125,-51.26953125,-42.48046875,-7.8125
0,1734117400897.75,0,-55.17578125,-42.48046875,0
1,1734117400901.6562,-6.34765625,-56.640625,-45.8984375,-1.46484375
2,1734117400905.5625,-7.8125,-65.91796875,-52.24609375,-4.39453125
3,1734117400909.4688,-11.71875,-66.40625,-48.33984375,-5.37109375
4,1734117400913.375,-18.06640625,-49.31640625,-44.921875,1.46484375
5,1734117400917.2812,-3.41796875,-41.9921875,-44.921875,13.671875
6,1734117400921.1875,3.90625,-42.96875,-44.921875,8.7890625
7,1734117400925.0938,-0.9765625,-44.921875,-45.41015625,4.39453125
8,1734117400929,3.90625,-42.96875,-44.43359375,28.3203125
9,1734117400932.9062,0,-41.9921875,-48.33984375,29.296875
10,1734117400936.8125,2.44140625,-50.78125,-46.875,9.765625
11,1734117400940.7188,17.08984375,-47.36328125,-42.96875,20.5078125
0,1734117400944.625,12.6953125,-38.57421875,-44.921875,15.625
1,1734117400948.5312,-1.953125,-38.57421875,-54.6875,0
2,1734117400952.4375,2.9296875,-41.015625,-49.8046875,8.30078125
3,1734117400956.3438,-0.48828125,-39.0625,-40.0390625,12.6953125
4,1734117400960.25,-3.90625,-33.69140625,-41.015625,6.8359375
5,1734117400964.1562,6.34765625,-37.59765625,-40.52734375,13.671875
6,1734117400968.0625,4.39453125,-39.55078125,-39.55078125,5.859375
7,1734117400971.9688,1.46484375,-44.921875,-42.96875,-9.27734375
8,1734117400975.875,-11.23046875,-54.19921875,-51.26953125,-2.44140625
9,1734117400979.7812,-16.6015625,-47.36328125,-55.6640625,-15.13671875
10,1734117400983.6875,-2.44140625,-40.52734375,-53.22265625,-14.6484375
11,1734117400987.5938,-6.34765625,-40.52734375,-51.26953125,0.9765625
0,1734117400991.5,-9.27734375,-38.57421875,-47.8515625,0.9765625
1,1734117400995.4062,0.48828125,-41.50390625,-45.41015625,7.8125
2,1734117400999.3125,5.37109375,-40.52734375,-49.31640625,8.30078125
3,1734117401003.2188,-18.5546875,-50.78125,-48.33984375,-0.9765625
4,1734117401007.125,-16.11328125,-54.19921875,-40.52734375,14.16015625
5,1734117401011.0312,11.71875,-41.9921875,-35.15625,17.08984375
6,1734117401014.9375,10.25390625,-42.96875,-31.25,31.25
7,1734117401018.8438,-5.859375,-43.45703125,-34.1796875,56.640625
8,1734117401022.75,-12.6953125,-43.45703125,-46.875,26.3671875
9,1734117401026.6562,5.37109375,-40.52734375,-53.22265625,21.97265625
10,1734117401030.5625,8.30078125,-37.59765625,-43.9453125,37.109375
11,1734117401034.4688,2.9296875,-39.55078125,-48.33984375,28.3203125
0,1734117401038.375,-0.48828125,-41.9921875,-57.6171875,12.20703125
1,1734117401042.2812,-0.9765625,-42.96875,-52.734375,-8.7890625
2,1734117401046.1875,8.30078125,-56.640625,-50.29296875,-4.39453125
3,1734117401050.0938,2.9296875,-55.17578125,-47.36328125,1.46484375
4,1734117401054,-13.671875,-41.015625,-48.33984375,-10.7421875
5,1734117401057.9062,-5.859375,-39.55078125,-49.8046875,-8.30078125
6,1734117401061.8125,-2.44140625,-38.57421875,-39.55078125,5.37109375
7,1734117401065.7188,-2.9296875,-34.1796875,-37.109375,15.13671875
8,1734117401069.625,0.9765625,-39.55078125,-44.43359375,6.8359375
9,1734117401073.5312,0.48828125,-44.921875,-43.45703125,6.34765625
10,1734117401077.4375,14.16015625,-36.1328125,-41.9921875,0
11,1734117401081.3438,4.8828125,-38.0859375,-42.48046875,-11.71875
0,1734117401085.25,-5.859375,-41.9921875,-43.9453125,-9.27734375
1,1734117401089.1562,-16.11328125,-46.875,-42.48046875,-13.18359375
2,1734117401093.0625,-23.4375,-45.8984375,-39.55078125,-9.765625
3,1734117401096.9688,-22.4609375,-35.15625,-45.8984375,-5.37109375
4,1734117401100.875,-34.66796875,-38.0859375,-46.875,-9.27734375
5,1734117401104.7812,-42.96875,-41.9921875,-49.8046875,-5.37109375
6,1734117401108.6875,-44.43359375,-39.55078125,-47.8515625,-7.8125
7,1734117401112.5938,-34.1796875,-38.0859375,-43.9453125,-8.7890625
8,1734117401116.5,-23.4375,-32.2265625,-48.828125,-5.37109375
9,1734117401120.4062,-11.71875,-37.59765625,-47.36328125,-0.48828125
10,1734117401124.3125,-8.30078125,-41.9921875,-38.0859375,13.671875
11,1734117401128.2188,-14.6484375,-36.1328125,-36.62109375,2.9296875
0,1734117401132.125,-2.44140625,-32.2265625,-40.52734375,5.37109375
1,1734117401136.0312,-4.39453125,-26.3671875,-34.66796875,3.90625
2,1734117401139.9375,-5.37109375,-29.78515625,-35.64453125,-4.8828125
3,1734117401143.8438,0.48828125,-36.1328125,-38.0859375,-3.90625
4,1734117401147.75,-15.13671875,-29.296875,-36.62109375,-20.01953125
5,1734117401151.6562,-12.6953125,-23.92578125,-33.69140625,-4.39453125
6,1734117401155.5625,-14.16015625,-34.66796875,-37.109375,-2.44140625
7,1734117401159.4688,-31.25,-41.50390625,-41.015625,-17.578125
8,1734117401163.375,-27.34375,-37.59765625,-36.1328125,-32.71484375
9,1734117401167.2812,-28.80859375,-30.2734375,-33.203125,-32.71484375
10,1734117401171.1875,-34.1796875,-37.109375,-35.15625,-4.39453125
11,1734117401175.0938,-32.2265625,-41.015625,-36.1328125,-5.37109375
0,1734117401179,-38.0859375,-30.2734375,-34.1796875,-0.9765625
1,1734117401182.9062,-28.3203125,-26.85546875,-33.203125,-1.953125
2,1734117401186.8125,-25.87890625,-30.76171875,-33.69140625,-5.37109375
3,1734117401190.7188,-29.78515625,-39.55078125,-33.203125,4.8828125
4,1734117401194.625,-26.85546875,-38.0859375,-35.64453125,1.953125
5,1734117401198.5312,-38.57421875,-31.73828125,-33.203125,7.8125
6,1734117401202.4375,-34.1796875,-29.78515625,-25.390625,6.8359375
7,1734117401206.3438,-20.5078125,-24.90234375,-24.90234375,-10.25390625
8,1734117401210.25,-17.08984375,-23.92578125,-27.83203125,-21.484375
9,1734117401214.1562,-23.92578125,-30.76171875,-29.296875,-12.6953125
10,1734117401218.0625,-26.3671875,-32.2265625,-35.64453125,-22.94921875
11,1734117401221.9688,-18.5546875,-35.15625,-42.96875,-35.64453125
0,1734117401225.875,-22.4609375,-35.15625,-45.41015625,-37.59765625
1,1734117401229.7812,-20.01953125,-36.62109375,-47.8515625,-45.8984375
2,1734117401233.6875,-6.34765625,-39.0625,-52.24609375,-25.390625
3,1734117401237.5938,-9.27734375,-30.2734375,-51.26953125,-21.97265625
4,1734117401241.5,-6.8359375,-27.83203125,-51.26953125,-28.80859375
5,1734117401245.4062,-14.6484375,-28.3203125,-51.26953125,-20.5078125
6,1734117401249.3125,-27.83203125,-28.3203125,-48.33984375,-20.99609375
7,1734117401253.2188,-22.4609375,-29.296875,-48.828125,-18.06640625
8,1734117401257.125,-12.6953125,-35.64453125,-44.43359375,-4.8828125
9,1734117401261.0312,-15.625,-40.52734375,-43.9453125,-2.44140625
10,1734117401264.9375,-13.671875,-40.52734375,-47.8515625,-3.90625
11,1734117401268.8438,-6.34765625,-40.52734375,-47.8515625,0.9765625
0,1734117401272.75,-8.30078125,-33.69140625,-43.45703125,7.8125
1,1734117401276.6562,-6.8359375,-38.57421875,-44.921875,13.18359375
2,1734117401280.5625,-4.8828125,-44.921875,-51.7578125,-1.46484375
3,1734117401284.4688,-8.30078125,-40.52734375,-53.7109375,0.9765625
4,1734117401288.375,-7.8125,-35.15625,-54.19921875,8.30078125
5,1734117401292.2812,-7.8125,-32.2265625,-50.78125,2.44140625
6,1734117401296.1875,-7.32421875,-36.1328125,-48.828125,3.90625
7,1734117401300.0938,5.37109375,-36.1328125,-44.43359375,17.578125
8,1734117401304,8.30078125,-35.15625,-42.48046875,28.3203125
9,1734117401307.9062,0.9765625,-41.50390625,-43.45703125,13.18359375
10,1734117401311.8125,2.9296875,-43.9453125,-40.0390625,12.6953125
11,1734117401315.7188,-0.9765625,-49.31640625,-37.109375,18.06640625
0,1734117401319.625,-0.9765625,-52.24609375,-42.48046875,-1.46484375
1,1734117401323.5312,9.27734375,-38.0859375,-43.9453125,-6.34765625
2,1734117401327.4375,5.37109375,-30.2734375,-42.96875,-0.48828125
3,1734117401331.3438,12.6953125,-36.1328125,-44.921875,0
4,1734117401335.25,29.78515625,-41.9921875,-43.45703125,10.7421875
5,1734117401339.1562,27.83203125,-48.828125,-43.45703125,18.06640625
6,1734117401343.0625,25.390625,-54.19921875,-40.52734375,15.625
7,1734117401346.9688,33.203125,-44.921875,-34.1796875,19.53125
8,1734117401350.875,22.4609375,-37.109375,-35.64453125,23.4375
9,1734117401354.7812,19.04296875,-41.9921875,-39.0625,20.01953125
10,1734117401358.6875,20.5078125,-37.109375,-37.59765625,20.5078125
11,1734117401362.5938,13.671875,-29.296875,-38.0859375,35.15625
0,1734117401366.5,9.765625,-32.71484375,-40.52734375,20.99609375
1,1734117401370.4062,2.9296875,-29.78515625,-41.9921875,2.9296875
2,1734117401374.3125,4.39453125,-34.1796875,-36.62109375,17.578125
3,1734117401378.2188,7.32421875,-42.48046875,-38.57421875,20.99609375
4,1734117401382.125,10.25390625,-42.96875,-41.9921875,10.25390625
5,1734117401386.0312,16.11328125,-46.875,-38.57421875,20.5078125
6,1734117401389.9375,12.6953125,-37.59765625,-36.1328125,29.78515625
7,1734117401393.8438,-4.8828125,-22.94921875,-31.73828125,33.69140625
8,1734117401397.75,0,-25.390625,-36.62109375,37.109375
9,1734117401401.6562,36.1328125,-31.73828125,-36.62109375,25.87890625
10,1734117401405.5625,41.50390625,-24.4140625,-33.203125,42.96875
11,1734117401409.4688,17.578125,-34.1796875,-37.109375,46.38671875
0,1734117401413.375,3.90625,-40.52734375,-41.50390625,27.34375
1,1734117401417.2812,-8.7890625,-33.203125,-37.59765625,20.5078125
2,1734117401421.1875,-15.625,-34.1796875,-36.1328125,14.16015625
3,1734117401425.0938,-17.578125,-36.1328125,-41.9921875,4.8828125
4,1734117401429,-17.08984375,-42.96875,-41.9921875,-12.20703125
5,1734117401432.9062,-9.765625,-41.015625,-39.55078125,1.953125
6,1734117401436.8125,6.34765625,-28.80859375,-37.109375,12.20703125
7,1734117401440.7188,17.578125,-27.34375,-32.71484375,4.8828125
8,1734117401444.625,10.25390625,-31.73828125,-35.15625,5.37109375
9,1734117401448.5312,12.6953125,-35.15625,-35.64453125,5.859375
10,1734117401452.4375,3.90625,-33.69140625,-35.64453125,-0.48828125
11,1734117401456.3438,-9.765625,-33.69140625,-37.59765625,-2.9296875
0,1734117401460.25,-11.23046875,-42.48046875,-44.921875,-12.20703125
1,1734117401464.1562,-11.71875,-54.19921875,-44.921875,-11.71875
2,1734117401468.0625,-18.5546875,-46.38671875,-40.52734375,-6.8359375
3,1734117401471.9688,-16.11328125,-27.83203125,-44.43359375,-15.13671875
4,1734117401475.875,-7.8125,-26.3671875,-47.36328125,-10.7421875
5,1734117401479.7812,-12.6953125,-37.109375,-46.38671875,-4.39453125
6,1734117401483.6875,-19.53125,-37.109375,-46.875,-5.37109375
7,1734117401487.5938,-30.2734375,-26.85546875,-42.96875,-10.25390625
8,1734117401491.5,-16.6015625,-25.87890625,-42.96875,-30.76171875
9,1734117401495.4062,-23.4375,-32.2265625,-48.33984375,-28.80859375
10,1734117401499.3125,-39.55078125,-31.73828125,-45.8984375,-14.6484375
11,1734117401503.2188,-38.0859375,-41.50390625,-41.9921875,-11.71875
0,1734117401507.125,-36.1328125,-51.7578125,-40.0390625,-19.04296875
1,1734117401511.0312,-34.66796875,-41.50390625,-40.52734375,-18.5546875
2,1734117401514.9375,-36.62109375,-41.015625,-41.9921875,-17.08984375
3,1734117401518.8438,-23.4375,-39.55078125,-41.015625,-16.6015625
4,1734117401522.75,-20.01953125,-35.15625,-42.48046875,-18.06640625
5,1734117401526.6562,-22.4609375,-38.57421875,-43.45703125,-18.06640625
6,1734117401530.5625,-24.90234375,-25.390625,-45.41015625,-14.6484375
7,1734117401534.4688,-40.52734375,-17.08984375,-48.33984375,-22.4609375
8,1734117401538.375,-17.08984375,-23.92578125,-45.41015625,-28.80859375
9,1734117401542.2812,3.90625,-28.80859375,-41.015625,-16.6015625
10,1734117401546.1875,-10.7421875,-33.69140625,-44.43359375,-16.11328125
11,1734117401550.0938,-23.4375,-35.15625,-47.8515625,-19.53125
0,1734117401554,-34.66796875,-33.69140625,-46.875,-22.94921875
1,1734117401557.9062,-32.2265625,-32.71484375,-47.36328125,-35.15625
2,1734117401561.8125,-35.15625,-27.34375,-49.8046875,-28.80859375
3,1734117401565.7188,-42.96875,-31.25,-47.8515625,-19.53125
4,1734117401569.625,-37.109375,-41.015625,-43.9453125,-12.20703125
5,1734117401573.5312,-29.78515625,-37.59765625,-41.50390625,-0.48828125
6,1734117401577.4375,-24.90234375,-29.296875,-42.48046875,0.9765625
7,1734117401581.3438,-29.296875,-35.64453125,-40.52734375,-1.953125
8,1734117401585.25,-39.55078125,-40.0390625,-38.57421875,-1.953125
9,1734117401589.1562,-28.3203125,-40.52734375,-41.015625,3.90625
10,1734117401593.0625,-19.04296875,-43.9453125,-42.48046875,-1.953125
11,1734117401596.9688,-32.71484375,-41.015625,-47.36328125,-15.13671875
0,1734117401600.875,-26.3671875,-45.8984375,-47.8515625,-9.27734375
1,1734117401604.7812,-2.9296875,-48.33984375,-46.875,3.41796875
2,1734117401608.6875,-5.37109375,-40.0390625,-47.8515625,5.37109375
3,1734117401612.5938,-9.765625,-38.0859375,-42.48046875,8.7890625
4,1734117401616.5,-0.48828125,-44.43359375,-44.921875,4.8828125
5,1734117401620.4062,0,-43.45703125,-45.8984375,1.953125
6,1734117401624.3125,0.9765625,-41.015625,-42.96875,0.48828125
7,1734117401628.2188,5.37109375,-47.36328125,-45.8984375,0.48828125
8,1734117401632.125,4.39453125,-48.828125,-45.41015625,-3.41796875
9,1734117401636.0312,-2.44140625,-46.875,-44.43359375,-0.9765625
10,1734117401639.9375,-29.296875,-56.15234375,-45.41015625,0.48828125
11,1734117401643.8438,-8.7890625,-53.7109375,-42.96875,17.578125
0,1734117401647.75,5.37109375,-37.109375,-41.9921875,21.97265625
1,1734117401651.6562,-9.27734375,-36.62109375,-45.41015625,7.8125
2,1734117401655.5625,0.48828125,-41.50390625,-44.921875,18.06640625
3,1734117401659.4688,5.859375,-41.9921875,-42.48046875,27.83203125
4,1734117401663.375,9.765625,-49.31640625,-40.0390625,21.484375
5,1734117401667.2812,12.20703125,-45.41015625,-40.52734375,9.765625
6,1734117401671.1875,13.18359375,-38.0859375,-43.9453125,-3.41796875
7,1734117401675.0938,9.765625,-46.38671875,-40.52734375,6.8359375
8,1734117401679,6.34765625,-46.875,-35.15625,33.69140625
9,1734117401682.9062,4.8828125,-44.43359375,-39.0625,22.4609375
10,1734117401686.8125,-1.46484375,-48.33984375,-38.0859375,14.16015625
11,1734117401690.7188,7.8125,-51.7578125,-36.1328125,11.71875
0,1734117401694.625,2.9296875,-67.87109375,-40.0390625,5.859375
1,1734117401698.5312,-16.11328125,-75.1953125,-42.48046875,8.7890625
2,1734117401702.4375,-3.41796875,-59.08203125,-40.52734375,17.08984375
3,1734117401706.3438,-3.41796875,-56.640625,-32.71484375,21.484375
4,1734117401710.25,-11.23046875,-61.03515625,-33.69140625,16.6015625
5,1734117401714.1562,-20.5078125,-67.87109375,-39.0625,9.27734375
6,1734117401718.0625,-23.92578125,-65.4296875,-38.57421875,-3.90625
7,1734117401721.9688,-17.08984375,-59.5703125,-34.66796875,-3.90625
8,1734117401725.875,-19.53125,-60.546875,-34.66796875,4.39453125
9,1734117401729.7812,-14.6484375,-64.94140625,-35.15625,5.859375
10,1734117401733.6875,-0.9765625,-67.87109375,-36.62109375,0.9765625
11,1734117401737.5938,0.48828125,-59.08203125,-36.1328125,-19.04296875
0,1734117401741.5,-7.32421875,-54.6875,-35.64453125,4.39453125
1,1734117401745.4062,8.7890625,-51.26953125,-39.55078125,39.0625
2,1734117401749.3125,13.18359375,-42.48046875,-36.62109375,35.15625
3,1734117401753.2188,15.13671875,-44.921875,-35.64453125,30.2734375
4,1734117401757.125,9.27734375,-49.8046875,-43.45703125,13.671875
5,1734117401761.0312,2.9296875,-52.734375,-46.875,0.48828125
6,1734117401764.9375,11.23046875,-43.45703125,-43.45703125,-4.8828125
7,1734117401768.8438,-17.578125,-39.0625,-41.9921875,8.30078125
8,1734117401772.75,-16.6015625,-36.1328125,-50.29296875,-0.9765625
9,1734117401776.6562,17.578125,-23.4375,-49.8046875,-10.7421875
10,1734117401780.5625,6.8359375,-22.94921875,-41.015625,3.90625
11,1734117401784.4688,-1.46484375,-23.4375,-42.96875,-4.8828125
0,1734117401788.375,0.9765625,-22.4609375,-46.38671875,-5.859375
1,1734117401792.2812,-11.71875,-32.71484375,-50.29296875,1.46484375
2,1734117401796.1875,-17.08984375,-41.50390625,-49.8046875,-10.7421875
3,1734117401800.0938,-9.27734375,-34.1796875,-43.45703125,-11.71875
4,1734117401804,1.46484375,-29.296875,-39.0625,4.8828125
5,1734117401807.9062,9.765625,-36.62109375,-34.66796875,13.671875
6,1734117401811.8125,5.37109375,-34.1796875,-34.1796875,29.296875
7,1734117401815.7188,1.953125,-32.71484375,-34.66796875,15.625
8,1734117401819.625,8.7890625,-33.69140625,-40.0390625,7.8125
