index,unixTimestamp,TP9,AF7,AF8,TP10
0,1734116490836.75,0,0,0,0
1,1734116490840.6562,0,-0.48828125,-0.9765625,0
2,1734116490844.5625,-1.953125,-1.46484375,3.90625,-0.9765625
3,1734116490848.4688,2.9296875,2.9296875,-13.18359375,1.46484375
4,1734116490852.375,-12.20703125,-20.99609375,38.57421875,-7.32421875
5,1734116490856.2812,-37.59765625,-50.29296875,27.83203125,-25.390625
6,1734116490860.1875,-20.01953125,-39.55078125,-83.49609375,-24.90234375
7,1734116490864.0938,-16.11328125,-32.2265625,-65.4296875,-24.4140625
8,1734116490868,-26.85546875,-41.9921875,-49.31640625,-20.99609375
9,1734116490871.9062,-26.85546875,-27.83203125,-42.48046875,-21.97265625
10,1734116490875.8125,-20.99609375,-9.27734375,-40.0390625,-18.06640625
11,1734116490879.7188,-11.71875,-14.6484375,-42.96875,-17.578125
0,1734116490883.625,-2.44140625,-24.90234375,-35.64453125,-16.11328125
1,1734116490887.5312,-5.37109375,-10.7421875,-30.76171875,-8.30078125
2,1734116490891.4375,-7.8125,-6.8359375,-22.94921875,-5.859375
3,1734116490895.3438,0.9765625,-22.94921875,-21.484375,-3.90625
4,1734116490899.25,3.90625,-20.5078125,-27.83203125,-4.8828125
5,1734116490903.1562,-2.44140625,-20.99609375,-19.04296875,1.953125
6,1734116490907.0625,-5.859375,-23.4375,-17.578125,5.37109375
7,1734116490910.9688,-7.32421875,-31.25,-26.85546875,3.90625
8,1734116490914.875,2.9296875,-56.15234375,-27.83203125,18.06640625
9,1734116490918.7812,-8.30078125,-12.6953125,-28.80859375,0
10,1734116490922.6875,-22.94921875,25.390625,-29.78515625,-14.6484375
11,1734116490926.5938,-2.44140625,-1.953125,-25.87890625,-3.90625
0,1734116490930.5,1.953125,-7.32421875,-23.92578125,-7.32421875
1,1734116490934.4062,-16.11328125,3.90625,-26.85546875,-10.25390625
2,1734116490938.3125,-30.2734375,-10.7421875,-32.2265625,-13.671875
3,1734116490942.2188,-20.99609375,-21.97265625,-33.69140625,-9.27734375
4,1734116490946.125,-8.30078125,-20.5078125,-31.25,-5.859375
5,1734116490950.0312,-14.6484375,-27.34375,-31.25,-7.8125
6,1734116490953.9375,-4.8828125,-26.85546875,-24.4140625,-1.46484375
7,1734116490957.8438,12.6953125,-52.734375,-22.4609375,13.671875
8,1734116490961.75,0.9765625,-59.5703125,-24.90234375,0.9765625
9,1734116490965.6562,-8.30078125,-8.30078125,-23.92578125,-25.390625
10,1734116490969.5625,-13.671875,-7.32421875,-23.4375,-23.92578125
11,1734116490973.4688,-6.8359375,-22.4609375,-12.6953125,-12.6953125
0,1734116490977.375,9.765625,-8.30078125,-24.90234375,-10.25390625
1,1734116490981.2812,7.8125,6.8359375,-37.109375,-13.18359375
2,1734116490985.1875,-0.9765625,-14.16015625,-32.71484375,-3.41796875
3,1734116490989.0938,-13.18359375,-24.4140625,-26.85546875,2.9296875
4,1734116490993,-12.20703125,-7.8125,-26.3671875,-6.34765625
5,1734116490996.9062,-16.6015625,-13.671875,-35.15625,-17.578125
6,1734116491000.8125,-17.08984375,-41.50390625,-27.83203125,-14.6484375
7,1734116491004.7188,-9.27734375,-49.31640625,-21.97265625,-8.30078125
8,1734116491008.625,-11.23046875,-13.18359375,-20.5078125,-20.01953125
9,1734116491012.5312,-12.20703125,-3.90625,-21.484375,-12.20703125
10,1734116491016.4375,-14.6484375,-24.4140625,-20.01953125,-9.765625
11,1734116491020.3438,-15.13671875,-25.87890625,-15.13671875,-31.73828125
0,1734116491024.25,-14.16015625,-26.85546875,-26.85546875,-20.99609375
1,1734116491028.1562,-28.3203125,-27.34375,-34.66796875,-18.06640625
2,1734116491032.0625,-26.3671875,-39.55078125,-29.296875,-21.97265625
3,1734116491035.9688,-24.90234375,-33.69140625,-25.390625,-29.296875
4,1734116491039.875,-43.9453125,-11.23046875,-26.85546875,-44.921875
5,1734116491043.7812,-41.50390625,-26.3671875,-28.3203125,-39.55078125
6,1734116491047.6875,-19.04296875,-70.3125,-24.90234375,-21.97265625
7,1734116491051.5938,-13.18359375,-68.359375,-28.3203125,-16.11328125
8,1734116491055.5,-29.296875,-14.16015625,-38.0859375,-31.25
9,1734116491059.4062,-29.296875,-12.6953125,-37.59765625,-28.80859375
10,1734116491063.3125,-21.97265625,-38.57421875,-34.1796875,-15.13671875
11,1734116491067.2188,-29.296875,-28.3203125,-33.203125,-23.4375
0,1734116491071.125,-36.1328125,1.46484375,-35.15625,-31.25
1,1734116491075.0312,-26.3671875,-12.6953125,-32.2265625,-20.5078125
2,1734116491078.9375,-18.5546875,-35.15625,-31.25,-7.8125
3,1734116491082.8438,-18.06640625,-24.90234375,-29.296875,-15.13671875
4,1734116491086.75,-9.765625,-19.04296875,-33.203125,-15.13671875
5,1734116491090.6562,-11.71875,-37.59765625,-31.73828125,-10.7421875
6,1734116491094.5625,-12.20703125,-81.0546875,-26.3671875,-5.859375
7,1734116491098.4688,-20.01953125,-41.50390625,-34.66796875,-5.859375
8,1734116491102.375,-30.2734375,2.9296875,-36.62109375,-22.94921875
9,1734116491106.2812,-24.4140625,-22.94921875,-36.62109375,-34.66796875
10,1734116491110.1875,-31.25,-28.80859375,-39.0625,-32.2265625
11,1734116491114.0938,-36.62109375,-8.7890625,-40.52734375,-38.0859375
0,1734116491118,-32.71484375,-7.32421875,-41.015625,-42.48046875
1,1734116491121.9062,-40.52734375,-30.2734375,-38.0859375,-39.0625
2,1734116491125.8125,-36.1328125,-25.87890625,-39.0625,-33.203125
3,1734116491129.7188,-29.78515625,-8.7890625,-40.0390625,-36.1328125
4,1734116491133.625,-40.52734375,-18.06640625,-33.203125,-42.48046875
5,1734116491137.5312,-31.25,-42.96875,-27.34375,-27.83203125
6,1734116491141.4375,-22.4609375,-36.1328125,-39.55078125,-20.99609375
7,1734116491145.3438,-23.4375,-22.94921875,-45.8984375,-19.53125
8,1734116491149.25,-19.04296875,-22.4609375,-34.66796875,-11.23046875
9,1734116491153.1562,-10.7421875,-54.6875,-34.66796875,-4.8828125
10,1734116491157.0625,-10.7421875,-65.91796875,-41.9921875,-6.8359375
11,1734116491160.9688,-29.78515625,-7.8125,-39.55078125,-31.73828125
0,1734116491164.875,-29.296875,-8.7890625,-33.69140625,-35.64453125
1,1734116491168.7812,-19.53125,-14.6484375,-30.2734375,-23.92578125
2,1734116491172.6875,-26.3671875,-3.90625,-29.78515625,-30.76171875
3,1734116491176.5938,-35.64453125,-4.8828125,-32.71484375,-34.1796875
4,1734116491180.5,-21.484375,-20.01953125,-28.80859375,-20.99609375
5,1734116491184.4062,-3.90625,-42.48046875,-27.83203125,-10.25390625
6,1734116491188.3125,-9.27734375,-37.59765625,-28.3203125,-10.7421875
7,1734116491192.2188,-20.99609375,-20.01953125,-28.3203125,-11.71875
8,1734116491196.125,-18.06640625,-35.15625,-30.76171875,-8.30078125
9,1734116491200.0312,-18.06640625,-70.3125,-30.76171875,-6.34765625
10,1734116491203.9375,-29.296875,-22.94921875,-36.62109375,-26.3671875
11,1734116491207.8438,-22.94921875,6.8359375,-35.64453125,-36.62109375
0,1734116491211.75,-26.85546875,-20.5078125,-34.66796875,-36.1328125
1,1734116491215.6562,-33.69140625,-15.625,-30.76171875,-32.2265625
2,1734116491219.5625,-32.2265625,-5.37109375,-28.3203125,-33.69140625
3,1734116491223.4688,-33.69140625,-7.8125,-36.62109375,-34.66796875
4,1734116491227.375,-32.2265625,-29.78515625,-38.0859375,-25.390625
5,1734116491231.2812,-26.85546875,-40.0390625,-33.69140625,-21.484375
6,1734116491235.1875,-23.92578125,-27.83203125,-30.2734375,-27.34375
7,1734116491239.0938,-27.34375,-24.4140625,-32.2265625,-37.59765625
8,1734116491243,-24.90234375,-51.7578125,-32.2265625,-27.34375
9,1734116491246.9062,-6.34765625,-54.19921875,-29.78515625,-17.578125
10,1734116491250.8125,-8.7890625,-10.7421875,-31.25,-35.15625
11,1734116491254.7188,-35.64453125,-13.671875,-27.83203125,-40.52734375
0,1734116491258.625,-33.203125,-11.23046875,-32.71484375,-33.203125
1,1734116491262.5312,-17.578125,2.9296875,-35.15625,-24.4140625
2,1734116491266.4375,-27.83203125,3.41796875,-19.04296875,-45.41015625
3,1734116491270.3438,-6.8359375,-9.27734375,-24.4140625,-28.3203125
4,1734116491274.25,7.32421875,-19.04296875,-26.3671875,-11.23046875
5,1734116491278.1562,-0.9765625,-19.04296875,-25.87890625,-17.578125
6,1734116491282.0625,-9.27734375,-18.06640625,-38.57421875,-15.625
7,1734116491285.9688,-24.4140625,-28.80859375,-37.59765625,-12.6953125
8,1734116491289.875,-29.296875,-42.48046875,-27.83203125,-6.8359375
9,1734116491293.7812,-29.296875,-8.30078125,-20.99609375,-20.5078125
10,1734116491297.6875,-19.53125,11.23046875,-26.85546875,-20.99609375
11,1734116491301.5938,-6.8359375,-15.625,-25.390625,-7.32421875
0,1734116491305.5,-8.30078125,-25.87890625,-24.4140625,-8.7890625
1,1734116491309.4062,-15.625,-13.18359375,-25.390625,-22.94921875
2,1734116491313.3125,-21.484375,-1.46484375,-24.4140625,-29.296875
3,1734116491317.2188,-9.765625,-27.34375,-27.83203125,-13.671875
4,1734116491321.125,-3.41796875,-29.296875,-28.3203125,-19.53125
5,1734116491325.0312,-14.16015625,-13.671875,-23.92578125,-36.1328125
6,1734116491328.9375,-18.5546875,-20.99609375,-28.3203125,-28.80859375
7,1734116491332.8438,-11.71875,-50.78125,-39.0625,-7.32421875
8,1734116491336.75,-9.27734375,-58.59375,-33.69140625,-2.44140625
9,1734116491340.6562,-23.92578125,0,-28.80859375,-27.83203125
10,1734116491344.5625,-19.04296875,2.44140625,-25.390625,-33.203125
11,1734116491348.4688,-11.23046875,-9.765625,-22.94921875,-24.4140625
0,1734116491352.375,-16.6015625,1.953125,-22.94921875,-24.90234375
1,1734116491356.2812,-13.671875,2.9296875,-24.90234375,-25.390625
2,1734116491360.1875,-12.20703125,-18.06640625,-29.296875,-15.625
3,1734116491364.0938,-23.4375,-33.203125,-26.85546875,-10.25390625
4,1734116491368,-21.484375,-15.13671875,-21.97265625,-8.7890625
5,1734116491371.9062,-26.3671875,-15.13671875,-24.4140625,-17.578125
6,1734116491375.8125,-23.92578125,-34.1796875,-25.87890625,-16.11328125
7,1734116491379.7188,-5.37109375,-42.96875,-25.87890625,-5.37109375
8,1734116491383.625,-13.18359375,-11.23046875,-22.4609375,-17.578125
9,1734116491387.5312,-29.296875,8.30078125,-23.4375,-24.90234375
10,1734116491391.4375,-24.4140625,-31.73828125,-25.390625,-29.78515625
11,1734116491395.3438,-17.578125,-37.109375,-31.25,-27.34375
0,1734116491399.25,-24.90234375,-3.90625,-35.64453125,-21.484375
1,1734116491403.1562,-29.296875,-11.23046875,-27.34375,-20.99609375
2,1734116491407.0625,-20.99609375,-16.6015625,-26.3671875,-22.94921875
3,1734116491410.9688,-18.06640625,-8.7890625,-28.3203125,-23.92578125
4,1734116491414.875,-18.06640625,-0.48828125,-30.2734375,-27.83203125
5,1734116491418.7812,-21.484375,-17.578125,-27.83203125,-27.83203125
6,1734116491422.6875,-27.34375,-47.36328125,-21.484375,-17.08984375
7,1734116491426.5938,-14.6484375,-51.7578125,-18.5546875,-16.6015625
8,1734116491430.5,-17.578125,-20.99609375,-28.80859375,-13.18359375
9,1734116491434.4062,-20.99609375,-14.6484375,-33.203125,-6.34765625
10,1734116491438.3125,-13.671875,-54.6875,-34.1796875,-2.44140625
11,1734116491442.2188,-15.625,-41.9921875,-40.0390625,-6.8359375
0,1734116491446.125,-18.5546875,12.6953125,-33.69140625,-18.06640625
1,1734116491450.0312,-20.5078125,-12.6953125,-27.83203125,-20.01953125
2,1734116491453.9375,-25.87890625,-25.390625,-30.2734375,-19.53125
3,1734116491457.8438,-32.71484375,-4.8828125,-36.1328125,-30.76171875
4,1734116491461.75,-30.76171875,-7.32421875,-34.66796875,-33.69140625
5,1734116491465.6562,-22.94921875,-30.2734375,-31.25,-25.87890625
6,1734116491469.5625,-21.484375,-45.8984375,-33.69140625,-30.76171875
7,1734116491473.4688,-32.71484375,-12.20703125,-37.59765625,-42.96875
8,1734116491477.375,-29.78515625,-7.32421875,-34.1796875,-35.15625
9,1734116491481.2812,-17.578125,-34.66796875,-32.71484375,-17.578125
10,1734116491485.1875,-20.5078125,-24.90234375,-36.1328125,-7.8125
11,1734116491489.0938,-31.73828125,0.9765625,-32.71484375,-15.13671875
0,1734116491493,-31.25,-2.44140625,-30.2734375,-26.3671875
1,1734116491496.9062,-28.3203125,-20.99609375,-34.66796875,-23.4375
2,1734116491500.8125,-35.15625,-21.484375,-35.15625,-30.2734375
3,1734116491504.7188,-41.9921875,-5.859375,-37.109375,-41.50390625
4,1734116491508.625,-19.04296875,-13.671875,-41.9921875,-34.66796875
5,1734116491512.5312,1.953125,-30.2734375,-36.1328125,-21.484375
6,1734116491516.4375,-3.41796875,-18.06640625,-38.0859375,-13.18359375
7,1734116491520.3438,-1.953125,-15.625,-37.109375,-8.7890625
8,1734116491524.25,-4.39453125,-18.06640625,-29.296875,-15.625
9,1734116491528.1562,-5.859375,-46.38671875,-30.76171875,-5.859375
10,1734116491532.0625,-5.859375,-54.6875,-21.97265625,-0.9765625
11,1734116491535.9688,-27.83203125,3.41796875,-19.53125,-34.66796875
0,1734116491539.875,-26.85546875,2.44140625,-16.6015625,-30.76171875
1,1734116491543.7812,-19.53125,-20.01953125,-13.671875,-10.7421875
2,1734116491547.6875,-24.4140625,-8.30078125,-23.92578125,-21.484375
3,1734116491551.5938,-17.578125,0,-22.94921875,-20.99609375
4,1734116491555.5,-6.8359375,-11.71875,-24.4140625,-4.39453125
5,1734116491559.4062,1.46484375,-22.94921875,-24.90234375,-3.90625
6,1734116491563.3125,-4.39453125,-23.4375,-26.85546875,-4.8828125
7,1734116491567.2188,-11.71875,-10.25390625,-26.3671875,-19.04296875
8,1734116491571.125,-1.953125,-17.578125,-24.4140625,-20.5078125
9,1734116491575.0312,1.46484375,-37.109375,-20.5078125,-13.671875
10,1734116491578.9375,-17.08984375,5.859375,-16.11328125,-28.80859375
11,1734116491582.8438,-19.53125,13.18359375,-19.53125,-23.4375
0,1734116491586.75,-9.27734375,-16.11328125,-20.01953125,-17.578125
1,1734116491590.6562,-10.7421875,-16.11328125,-21.484375,-29.78515625
2,1734116491594.5625,-24.4140625,-0.9765625,-21.484375,-31.25
3,1734116491598.4688,-14.16015625,-3.90625,-25.390625,-7.8125
4,1734116491602.375,-4.39453125,-31.73828125,-28.80859375,0
5,1734116491606.2812,-10.7421875,-36.1328125,-32.2265625,-12.6953125
6,1734116491610.1875,-4.8828125,-15.13671875,-35.64453125,-12.20703125
7,1734116491614.0938,-8.7890625,-4.8828125,-25.390625,-12.20703125
8,1734116491618,-6.34765625,-37.59765625,-24.90234375,-4.39453125
9,1734116491621.9062,-8.30078125,-53.22265625,-32.2265625,-3.41796875
10,1734116491625.8125,-27.34375,2.9296875,-28.80859375,-20.01953125
11,1734116491629.7188,-25.390625,3.90625,-23.4375,-21.97265625
0,1734116491633.625,-24.90234375,-6.8359375,-27.83203125,-25.87890625
1,1734116491637.5312,-16.11328125,6.34765625,-22.94921875,-31.25
2,1734116491641.4375,-8.30078125,3.41796875,-20.99609375,-23.92578125
3,1734116491645.3438,-15.13671875,-23.92578125,-31.73828125,-14.6484375
4,1734116491649.25,-12.6953125,-32.71484375,-33.69140625,-6.8359375
5,1734116491653.1562,-10.25390625,-17.08984375,-27.83203125,-3.41796875
6,1734116491657.0625,-0.9765625,-11.23046875,-23.4375,-5.37109375
7,1734116491660.9688,19.04296875,-20.99609375,-20.99609375,8.7890625
8,1734116491664.875,9.27734375,-32.71484375,-17.578125,15.13671875
9,1734116491668.7812,-15.625,7.32421875,-21.97265625,-12.6953125
10,1734116491672.6875,-9.27734375,2.9296875,-28.80859375,-20.99609375
11,1734116491676.5938,-8.30078125,-31.73828125,-30.76171875,-20.99609375
0,1734116491680.5,-17.08984375,-16.11328125,-31.73828125,-26.85546875
1,1734116491684.4062,-26.85546875,0.48828125,-29.78515625,-26.85546875
2,1734116491688.3125,-32.2265625,-8.30078125,-30.76171875,-28.3203125
3,1734116491692.2188,-22.94921875,-26.3671875,-38.57421875,-25.87890625
4,1734116491696.125,-13.671875,-26.3671875,-40.52734375,-19.53125
5,1734116491700.0312,-14.6484375,-29.78515625,-42.48046875,-14.6484375
6,1734116491703.9375,-20.99609375,-36.1328125,-38.0859375,-20.99609375
7,1734116491707.8438,-17.578125,-61.03515625,-29.296875,-11.71875
8,1734116491711.75,-16.11328125,-75.1953125,-35.64453125,-5.37109375
9,1734116491715.6562,-21.97265625,-16.6015625,-34.66796875,-20.01953125
10,1734116491719.5625,-20.5078125,-3.41796875,-22.4609375,-24.90234375
11,1734116491723.4688,-12.6953125,-24.4140625,-25.390625,-21.97265625
0,1734116491727.375,-17.08984375,-0.9765625,-26.3671875,-29.296875
1,1734116491731.2812,-19.04296875,10.7421875,-20.01953125,-29.78515625
2,1734116491735.1875,-12.6953125,-13.671875,-21.97265625,-15.625
3,1734116491739.0938,-17.578125,-20.99609375,-22.94921875,-19.53125
4,1734116491743,-24.4140625,-14.6484375,-24.90234375,-24.90234375
5,1734116491746.9062,-42.96875,-30.2734375,-25.87890625,-35.15625
6,1734116491750.8125,-30.76171875,-45.41015625,-37.109375,-35.15625
7,1734116491754.7188,-13.18359375,-51.7578125,-41.015625,-20.01953125
8,1734116491758.625,-13.671875,-23.4375,-41.015625,-15.13671875
9,1734116491762.5312,-17.08984375,8.7890625,-40.52734375,-23.4375
10,1734116491766.4375,-14.16015625,-14.16015625,-29.78515625,-20.99609375
11,1734116491770.3438,-13.671875,-27.34375,-28.80859375,-21.97265625
0,1734116491774.25,-27.34375,1.953125,-31.25,-30.76171875
1,1734116491778.1562,-19.53125,1.46484375,-27.83203125,-20.99609375
2,1734116491782.0625,-6.34765625,-14.6484375,-21.97265625,-19.53125
3,1734116491785.9688,-14.16015625,-14.16015625,-26.3671875,-31.73828125
4,1734116491789.875,-10.25390625,-10.7421875,-29.78515625,-28.3203125
5,1734116491793.7812,-11.71875,-22.4609375,-28.3203125,-13.671875
6,1734116491797.6875,-12.6953125,-53.7109375,-30.76171875,-3.90625
7,1734116491801.5938,-7.8125,-51.26953125,-34.66796875,-8.7890625
8,1734116491805.5,-22.4609375,-4.39453125,-35.64453125,-20.5078125
9,1734116491809.4062,-21.484375,-1.46484375,-32.2265625,-21.484375
10,1734116491813.3125,-11.23046875,-49.8046875,-31.73828125,-10.7421875
11,1734116491817.2188,-20.01953125,-31.25,-35.15625,-19.53125
0,1734116491821.125,-26.85546875,16.6015625,-33.69140625,-38.0859375
1,1734116491825.0312,0,-11.23046875,-29.78515625,-25.390625
2,1734116491828.9375,-6.8359375,-24.90234375,-30.2734375,-20.99609375
3,1734116491832.8438,-20.01953125,-6.8359375,-37.109375,-29.78515625
4,1734116491836.75,-11.23046875,-5.37109375,-39.0625,-27.83203125
5,1734116491840.6562,-7.8125,-38.0859375,-31.25,-19.53125
6,1734116491844.5625,-14.16015625,-57.12890625,-34.1796875,-17.578125
7,1734116491848.4688,-25.87890625,-18.5546875,-39.0625,-27.83203125
8,1734116491852.375,-29.296875,2.44140625,-40.52734375,-23.92578125
9,1734116491856.2812,-23.4375,-25.390625,-37.59765625,-11.71875
10,1734116491860.1875,-24.90234375,-28.3203125,-36.62109375,-24.90234375
11,1734116491864.0938,-27.83203125,-11.71875,-32.2265625,-30.76171875
0,1734116491868,-25.87890625,-12.6953125,-32.71484375,-23.92578125
1,1734116491871.9062,-16.11328125,-40.0390625,-35.64453125,-11.23046875
2,1734116491875.8125,-12.20703125,-27.34375,-30.76171875,-15.625
3,1734116491879.7188,-23.4375,7.8125,-32.2265625,-28.80859375
4,1734116491883.625,-19.04296875,-15.13671875,-33.203125,-16.11328125
5,1734116491887.5312,-14.6484375,-49.8046875,-32.2265625,-9.765625
6,1734116491891.4375,-27.34375,-38.57421875,-31.73828125,-14.6484375
7,1734116491895.3438,-30.76171875,-17.08984375,-26.3671875,-16.11328125
8,1734116491899.25,-19.04296875,-9.765625,-26.85546875,-20.01953125
9,1734116491903.1562,-5.37109375,-43.45703125,-30.76171875,-14.6484375
10,1734116491907.0625,-10.25390625,-41.9921875,-31.25,-14.16015625
11,1734116491910.9688,-20.5078125,11.23046875,-33.69140625,-30.2734375
0,1734116491914.875,-8.7890625,2.44140625,-35.64453125,-26.3671875
1,1734116491918.7812,-8.7890625,-6.8359375,-31.25,-19.53125
2,1734116491922.6875,-16.6015625,0,-28.3203125,-16.6015625
3,1734116491926.5938,-17.578125,-4.39453125,-31.73828125,-11.71875
4,1734116491930.5,-10.7421875,-16.6015625,-27.83203125,-10.25390625
5,1734116491934.4062,-5.37109375,-38.57421875,-28.3203125,-9.765625
6,1734116491938.3125,-23.4375,-26.3671875,-36.1328125,-20.5078125
7,1734116491942.2188,-34.1796875,9.765625,-35.15625,-25.87890625
8,1734116491946.125,-25.390625,-15.13671875,-29.296875,-19.53125
9,1734116491950.0312,-22.94921875,-29.296875,-27.34375,-6.8359375
10,1734116491953.9375,-32.71484375,6.8359375,-30.2734375,-7.32421875
11,1734116491957.8438,-18.06640625,3.90625,-27.34375,-8.7890625
0,1734116491961.75,-12.20703125,-14.16015625,-26.3671875,-7.8125
1,1734116491965.6562,-18.5546875,-8.30078125,-34.66796875,-10.7421875
2,1734116491969.5625,-15.625,0.48828125,-30.2734375,-12.6953125
3,1734116491973.4688,-15.625,-9.765625,-29.78515625,-17.08984375
4,1734116491977.375,-8.7890625,-21.484375,-37.59765625,-20.01953125
5,1734116491981.2812,-12.20703125,-21.484375,-34.1796875,-27.34375
6,1734116491985.1875,-15.13671875,-19.04296875,-28.80859375,-8.30078125
7,1734116491989.0938,-7.8125,-15.625,-26.3671875,0.48828125
8,1734116491993,3.41796875,-41.50390625,-30.2734375,-4.39453125
9,1734116491996.9062,15.625,-75.68359375,-31.25,6.8359375
10,1734116492000.8125,1.953125,-11.23046875,-34.66796875,-12.20703125
11,1734116492004.7188,-6.34765625,11.23046875,-32.2265625,-38.0859375
0,1734116492008.625,-13.671875,-14.6484375,-34.1796875,-42.96875
1,1734116492012.5312,-17.578125,6.34765625,-46.38671875,-23.4375
2,1734116492016.4375,-13.18359375,16.11328125,-45.8984375,-11.23046875
3,1734116492020.3438,-14.16015625,-5.859375,-36.62109375,-11.23046875
4,1734116492024.25,-8.30078125,-22.94921875,-33.69140625,2.9296875
5,1734116492028.1562,-18.5546875,-15.13671875,-29.296875,-14.6484375
6,1734116492032.0625,-22.4609375,-12.6953125,-25.87890625,-21.97265625
7,1734116492035.9688,-2.44140625,-26.85546875,-26.3671875,-2.9296875
8,1734116492039.875,10.25390625,-47.36328125,-27.34375,-2.9296875
9,1734116492043.7812,7.8125,-14.16015625,-32.71484375,-7.8125
10,1734116492047.6875,-10.25390625,9.27734375,-32.2265625,-18.5546875
11,1734116492051.5938,-20.99609375,-9.765625,-26.3671875,-19.04296875
0,1734116492055.5,-14.16015625,-18.5546875,-26.85546875,-0.9765625
1,1734116492059.4062,-6.8359375,-6.8359375,-28.80859375,5.37109375
2,1734116492063.3125,0,-9.765625,-24.4140625,-2.9296875
3,1734116492067.2188,-0.9765625,-26.85546875,-20.99609375,-13.18359375
4,1734116492071.125,-13.671875,-30.2734375,-29.296875,-23.92578125
5,1734116492075.0312,-16.11328125,-32.2265625,-36.1328125,-18.5546875
6,1734116492078.9375,-16.6015625,-24.90234375,-31.25,-20.5078125
7,1734116492082.8438,-12.20703125,-53.7109375,-30.2734375,-10.25390625
8,1734116492086.75,-9.765625,-67.3828125,-34.66796875,-3.41796875
9,1734116492090.6562,-10.7421875,-4.39453125,-31.25,-26.3671875
10,1734116492094.5625,-6.34765625,-7.32421875,-29.296875,-13.18359375
11,1734116492098.4688,-12.6953125,-27.34375,-31.25,-5.859375
0,1734116492102.375,-17.578125,-6.8359375,-27.34375,-16.11328125
1,1734116492106.2812,-26.85546875,-1.953125,-29.78515625,-19.53125
2,1734116492110.1875,-25.390625,-18.06640625,-31.25,-17.578125
3,1734116492114.0938,-26.85546875,-26.85546875,-21.484375,-23.92578125
4,1734116492118,-20.5078125,-16.6015625,-15.13671875,-25.87890625
5,1734116492121.9062,-7.8125,-20.01953125,-21.484375,-20.01953125
6,1734116492125.8125,8.7890625,-33.69140625,-23.92578125,-4.39453125
7,1734116492129.7188,7.32421875,-48.33984375,-22.94921875,13.18359375
8,1734116492133.625,-12.20703125,-13.671875,-28.3203125,-5.37109375
9,1734116492137.5312,0,4.39453125,-31.73828125,-11.71875
10,1734116492141.4375,9.27734375,-18.06640625,-33.69140625,-5.37109375
11,1734116492145.3438,0,-21.484375,-30.76171875,-9.765625
0,1734116492149.25,4.8828125,-3.90625,-26.85546875,-6.34765625
1,1734116492153.1562,8.7890625,-7.8125,-26.85546875,-1.953125
2,1734116492157.0625,5.37109375,-30.2734375,-22.94921875,1.46484375
3,1734116492160.9688,-2.9296875,-9.27734375,-18.5546875,-8.7890625
4,1734116492164.875,-12.20703125,15.625,-25.87890625,-19.53125
5,1734116492168.7812,-7.8125,0.9765625,-34.1796875,-14.16015625
6,1734116492172.6875,0.9765625,-34.66796875,-29.78515625,-3.90625
7,1734116492176.5938,-8.7890625,-47.36328125,-21.484375,-17.08984375
8,1734116492180.5,-18.5546875,0.9765625,-32.71484375,-29.78515625
9,1734116492184.4062,-5.859375,8.7890625,-36.1328125,-24.90234375
10,1734116492188.3125,0.48828125,-31.73828125,-27.83203125,-30.76171875
11,1734116492192.2188,-8.30078125,-17.08984375,-33.203125,-27.83203125
0,1734116492196.125,-15.625,13.18359375,-26.85546875,-17.578125
1,1734116492200.0312,-30.2734375,-1.953125,-18.5546875,-19.53125
2,1734116492203.9375,-27.83203125,-14.16015625,-23.92578125,-20.99609375
3,1734116492207.8438,-13.671875,-18.5546875,-29.78515625,-11.23046875
4,1734116492211.75,-14.16015625,-15.625,-26.3671875,-15.625
5,1734116492215.6562,-16.11328125,-21.97265625,-23.92578125,-8.7890625
6,1734116492219.5625,-4.8828125,-63.96484375,-30.76171875,11.71875
7,1734116492223.4688,-7.32421875,-34.1796875,-30.76171875,0.48828125
8,1734116492227.375,-23.4375,10.7421875,-30.76171875,-20.99609375
9,1734116492231.2812,-21.97265625,-17.578125,-32.71484375,-12.20703125
10,1734116492235.1875,-14.6484375,-21.97265625,-30.76171875,-12.20703125
11,1734116492239.0938,-18.06640625,-4.39453125,-36.1328125,-33.203125
0,1734116492243,-13.18359375,-7.32421875,-36.1328125,-31.25
1,1734116492246.9062,0.48828125,-17.08984375,-32.71484375,-13.18359375
2,1734116492250.8125,-4.39453125,-14.16015625,-35.64453125,-10.25390625
3,1734116492254.7188,-15.625,-0.9765625,-33.69140625,-22.4609375
4,1734116492258.625,-19.53125,-17.08984375,-27.83203125,-28.3203125
5,1734116492262.5312,-12.20703125,-41.50390625,-29.78515625,-22.4609375
6,1734116492266.4375,-18.5546875,-36.1328125,-36.1328125,-27.34375
7,1734116492270.3438,-22.4609375,-26.85546875,-37.59765625,-27.83203125
8,1734116492274.25,-16.6015625,-22.4609375,-31.25,-32.71484375
9,1734116492278.1562,-4.39453125,-55.6640625,-28.3203125,-18.06640625
10,1734116492282.0625,-5.37109375,-65.91796875,-29.296875,-8.30078125
11,1734116492285.9688,-25.87890625,3.90625,-23.92578125,-24.4140625
0,1734116492289.875,-26.3671875,12.20703125,-23.4375,-27.83203125
1,1734116492293.7812,-14.6484375,-9.27734375,-25.87890625,-19.04296875
2,1734116492297.6875,-15.13671875,-4.39453125,-28.80859375,-26.3671875
3,1734116492301.5938,-18.06640625,-4.8828125,-33.69140625,-36.1328125
4,1734116492305.5,-13.671875,-15.625,-33.69140625,-20.5078125
5,1734116492309.4062,-13.671875,-34.66796875,-31.25,-17.578125
6,1734116492313.3125,-14.6484375,-35.64453125,-36.1328125,-20.99609375
7,1734116492317.2188,-14.16015625,-8.7890625,-31.73828125,-24.90234375
8,1734116492321.125,-8.7890625,-25.87890625,-27.34375,-28.3203125
9,1734116492325.0312,7.8125,-77.1484375,-32.71484375,-4.8828125
10,1734116492328.9375,-0.9765625,-27.34375,-31.73828125,-12.6953125
11,1734116492332.8438,-22.4609375,5.37109375,-30.2734375,-37.109375
0,1734116492336.75,-20.99609375,-27.34375,-24.4140625,-26.85546875
1,1734116492340.6562,-19.04296875,-20.5078125,-21.484375,-13.671875
2,1734116492344.5625,-25.390625,-7.32421875,-26.85546875,-11.71875
3,1734116492348.4688,-22.94921875,-20.01953125,-20.5078125,-5.37109375
4,1734116492352.375,-12.20703125,-35.64453125,-18.06640625,-5.859375
5,1734116492356.2812,-8.7890625,-40.52734375,-24.4140625,-10.25390625
6,1734116492360.1875,-15.13671875,-38.0859375,-20.01953125,-8.7890625
7,1734116492364.0938,-36.62109375,-35.15625,-20.99609375,-24.4140625
8,1734116492368,-29.78515625,-67.87109375,-27.83203125,-17.08984375
9,1734116492371.9062,-16.6015625,-70.3125,-25.87890625,-10.25390625
10,1734116492375.8125,-22.94921875,-11.71875,-23.4375,-22.4609375
11,1734116492379.7188,-24.4140625,-18.5546875,-30.76171875,-20.5078125
0,1734116492383.625,-26.85546875,-40.52734375,-25.87890625,-50.78125
1,1734116492387.5312,-24.90234375,-18.5546875,-25.390625,-51.26953125
2,1734116492391.4375,-15.13671875,-3.90625,-27.34375,-15.625
3,1734116492395.3438,-4.8828125,-9.27734375,-24.4140625,-4.8828125
4,1734116492399.25,-5.37109375,-16.6015625,-29.78515625,-10.7421875
5,1734116492403.1562,-6.34765625,-24.90234375,-34.1796875,-15.625
6,1734116492407.0625,-14.6484375,-24.90234375,-32.71484375,-17.578125
7,1734116492410.9688,-24.4140625,-36.1328125,-31.25,-16.6015625
8,1734116492414.875,-26.85546875,-50.78125,-25.87890625,-21.97265625
9,1734116492418.7812,-33.203125,-17.08984375,-30.2734375,-29.296875
10,1734116492422.6875,-24.4140625,-5.859375,-27.34375,-22.94921875
11,1734116492426.5938,-14.16015625,-26.85546875,-30.76171875,-20.5078125
0,1734116492430.5,-30.2734375,-17.08984375,-37.59765625,-42.96875
1,1734116492434.4062,-34.1796875,-11.23046875,-37.59765625,-39.55078125
2,1734116492438.3125,-23.92578125,-8.30078125,-43.45703125,-29.296875
3,1734116492442.2188,-23.4375,-14.16015625,-42.96875,-28.3203125
4,1734116492446.125,-21.97265625,-12.20703125,-45.41015625,-26.85546875
5,1734116492450.0312,-29.78515625,2.9296875,-47.36328125,-30.2734375
6,1734116492453.9375,-21.484375,6.8359375,-48.33984375,-16.6015625
7,1734116492457.8438,0.48828125,-17.08984375,-44.921875,-11.23046875
8,1734116492461.75,-8.30078125,-21.484375,-48.828125,-19.04296875
9,1734116492465.6562,-27.83203125,38.57421875,-45.8984375,-37.59765625
10,1734116492469.5625,-15.13671875,38.0859375,-42.48046875,-36.1328125
11,1734116492473.4688,-12.20703125,21.484375,-48.33984375,-26.3671875
0,1734116492477.375,-16.11328125,26.3671875,-48.828125,-30.2734375
1,1734116492481.2812,-12.6953125,30.76171875,-41.015625,-23.4375
2,1734116492485.1875,-11.23046875,20.01953125,-40.52734375,-11.23046875
3,1734116492489.0938,-8.7890625,9.27734375,-42.96875,-16.6015625
4,1734116492493,-7.32421875,15.625,-43.9453125,-14.16015625
5,1734116492496.9062,-9.765625,10.7421875,-45.41015625,-6.8359375
6,1734116492500.8125,-6.8359375,2.44140625,-45.8984375,-8.30078125
7,1734116492504.7188,6.34765625,-26.3671875,-46.38671875,-4.39453125
8,1734116492508.625,-9.765625,3.90625,-46.875,-21.97265625
9,1734116492512.5312,-28.3203125,48.828125,-42.96875,-35.64453125
10,1734116492516.4375,-22.4609375,20.99609375,-38.57421875,-22.4609375
11,1734116492520.3438,-18.06640625,16.11328125,-40.0390625,-28.3203125
0,1734116492524.25,-15.13671875,34.66796875,-38.0859375,-16.11328125
1,1734116492528.1562,-18.5546875,29.78515625,-38.57421875,-11.23046875
2,1734116492532.0625,-15.625,14.6484375,-29.78515625,-25.390625
3,1734116492535.9688,-14.6484375,21.484375,-29.296875,-36.1328125
4,1734116492539.875,-11.23046875,30.76171875,-29.78515625,-37.109375
5,1734116492543.7812,-4.39453125,16.11328125,-21.484375,-22.4609375
6,1734116492547.6875,-15.13671875,-23.92578125,-32.71484375,-19.53125
7,1734116492551.5938,-26.3671875,-32.71484375,-39.55078125,-25.87890625
8,1734116492555.5,-33.69140625,0.9765625,-40.0390625,-44.43359375
9,1734116492559.4062,-39.55078125,1.953125,-40.52734375,-51.26953125
10,1734116492563.3125,-38.0859375,6.34765625,-39.0625,-51.7578125
11,1734116492567.2188,-53.7109375,18.5546875,-38.57421875,-59.5703125
0,1734116492571.125,-44.921875,16.6015625,-37.109375,-44.921875
1,1734116492575.0312,-29.78515625,9.27734375,-37.109375,-25.87890625
2,1734116492578.9375,-41.015625,-11.23046875,-32.2265625,-22.4609375
3,1734116492582.8438,-17.578125,-2.9296875,-42.48046875,-15.625
4,1734116492586.75,-17.578125,8.30078125,-41.9921875,-29.78515625
5,1734116492590.6562,-14.16015625,-18.5546875,-34.1796875,-26.3671875
6,1734116492594.5625,15.13671875,-45.41015625,-39.0625,-20.5078125
7,1734116492598.4688,-21.97265625,-16.11328125,-41.50390625,-40.52734375
8,1734116492602.375,-33.203125,-1.953125,-34.66796875,-38.57421875
9,1734116492606.2812,19.53125,-44.43359375,-28.80859375,-17.578125
10,1734116492610.1875,-18.06640625,-45.41015625,-22.4609375,-23.4375
11,1734116492614.0938,-43.9453125,-16.11328125,-23.4375,-33.69140625
0,1734116492618,-19.53125,-17.08984375,-29.78515625,-37.109375
1,1734116492621.9062,-25.87890625,-34.1796875,-32.2265625,-33.203125
2,1734116492625.8125,-28.80859375,-35.15625,-30.2734375,-27.34375
3,1734116492629.7188,-14.16015625,-20.99609375,-21.484375,-28.80859375
4,1734116492633.625,-19.04296875,-20.01953125,-22.4609375,-25.87890625
5,1734116492637.5312,-32.2265625,-48.33984375,-22.4609375,-19.04296875
6,1734116492641.4375,-41.015625,-49.8046875,-21.484375,-26.85546875
7,1734116492645.3438,-34.66796875,-20.99609375,-23.4375,-29.78515625
8,1734116492649.25,-15.13671875,-4.8828125,-22.4609375,-22.4609375
9,1734116492653.1562,-11.23046875,-38.0859375,-14.6484375,-15.625
10,1734116492657.0625,-19.53125,-62.98828125,-11.71875,-27.83203125
11,1734116492660.9688,-22.94921875,-12.6953125,-28.3203125,-27.34375
0,1734116492664.875,-15.625,1.46484375,-31.25,-0.48828125
1,1734116492668.7812,-23.4375,-19.53125,-27.83203125,-5.37109375
2,1734116492672.6875,-21.484375,-21.484375,-20.5078125,-10.7421875
3,1734116492676.5938,-9.27734375,-0.9765625,-17.08984375,-5.37109375
4,1734116492680.5,-3.41796875,-17.08984375,-14.16015625,4.8828125
5,1734116492684.4062,-16.11328125,-37.109375,-12.6953125,4.39453125
6,1734116492688.3125,-5.859375,-29.296875,-19.53125,-8.7890625
7,1734116492692.2188,16.11328125,-9.27734375,-24.4140625,-20.99609375
8,1734116492696.125,8.7890625,-24.90234375,-23.92578125,-20.99609375
9,1734116492700.0312,13.18359375,-53.22265625,-24.90234375,9.765625
10,1734116492703.9375,14.6484375,-9.27734375,-26.85546875,14.6484375
11,1734116492707.8438,-5.37109375,-4.8828125,-22.94921875,1.46484375
0,1734116492711.75,-16.11328125,-39.0625,-28.3203125,1.953125
1,1734116492715.6562,-23.4375,-38.0859375,-34.66796875,-3.41796875
2,1734116492719.5625,-35.15625,-14.6484375,-33.203125,-13.671875
3,1734116492723.4688,-11.71875,-8.30078125,-24.90234375,-9.27734375
4,1734116492727.375,2.9296875,-46.875,-29.78515625,2.9296875
5,1734116492731.2812,-10.7421875,-56.640625,-26.3671875,-7.32421875
6,1734116492735.1875,-20.01953125,-31.73828125,-30.2734375,-13.18359375
7,1734116492739.0938,-19.04296875,-21.97265625,-41.015625,-10.25390625
8,1734116492743,-12.20703125,-55.6640625,-33.69140625,-13.671875
9,1734116492746.9062,-20.99609375,-72.265625,-31.73828125,-26.85546875
10,1734116492750.8125,-19.53125,-8.7890625,-30.76171875,-33.203125
11,1734116492754.7188,-9.27734375,-0.48828125,-32.2265625,-1.953125
0,1734116492758.625,-21.484375,-19.53125,-32.2265625,3.41796875
1,1734116492762.5312,-33.203125,-6.34765625,-31.73828125,-7.8125
2,1734116492766.4375,-25.390625,1.46484375,-29.296875,-13.18359375
3,1734116492770.3438,-7.8125,-20.01953125,-25.390625,-17.578125
4,1734116492774.25,-14.16015625,-35.64453125,-28.3203125,-11.23046875
5,1734116492778.1562,-25.87890625,-20.99609375,-36.62109375,8.7890625
6,1734116492782.0625,-21.484375,-24.90234375,-31.25,-1.953125
7,1734116492785.9688,-5.37109375,-41.015625,-21.484375,-6.8359375
8,1734116492789.875,0.48828125,-69.82421875,-24.4140625,0
9,1734116492793.7812,-20.99609375,-34.66796875,-35.15625,-6.34765625
10,1734116492797.6875,-25.87890625,3.90625,-31.73828125,-16.6015625
11,1734116492801.5938,-0.48828125,-13.671875,-20.01953125,-14.16015625
0,1734116492805.5,-0.9765625,-6.34765625,-22.4609375,-15.13671875
1,1734116492809.4062,-5.859375,0,-24.4140625,-17.578125
2,1734116492813.3125,-5.37109375,-12.6953125,-23.92578125,-14.6484375
3,1734116492817.2188,-5.859375,-21.97265625,-29.78515625,-3.41796875
4,1734116492821.125,-14.6484375,-22.4609375,-29.78515625,-6.34765625
5,1734116492825.0312,-22.4609375,-31.25,-31.73828125,-13.671875
6,1734116492828.9375,-11.23046875,-30.76171875,-26.85546875,-9.27734375
7,1734116492832.8438,-3.90625,-54.19921875,-24.4140625,2.9296875
8,1734116492836.75,-20.99609375,-68.84765625,-25.390625,0
9,1734116492840.6562,-31.25,-7.8125,-25.390625,-19.04296875
10,1734116492844.5625,-20.99609375,4.8828125,-20.01953125,-18.06640625
11,1734116492848.4688,-7.32421875,-28.80859375,-13.671875,-14.6484375
0,1734116492852.375,-19.53125,-13.18359375,-26.85546875,-26.3671875
1,1734116492856.2812,-36.1328125,15.13671875,-45.8984375,-27.34375
2,1734116492860.1875,-13.18359375,-9.27734375,-39.0625,-17.578125
3,1734116492864.0938,-4.8828125,-32.2265625,-29.296875,-12.6953125
4,1734116492868,-0.48828125,-20.5078125,-33.203125,-2.9296875
5,1734116492871.9062,-1.953125,-13.671875,-34.66796875,-17.08984375
6,1734116492875.8125,1.953125,-30.76171875,-31.25,-9.27734375
7,1734116492879.7188,-4.8828125,-48.33984375,-28.3203125,-19.53125
8,1734116492883.625,-25.390625,-21.484375,-24.90234375,-38.57421875
9,1734116492887.5312,-8.30078125,-13.671875,-30.2734375,-20.01953125
10,1734116492891.4375,-25.390625,-27.83203125,-33.69140625,-31.25
11,1734116492895.3438,-40.0390625,-31.73828125,-22.94921875,-37.59765625
0,1734116492899.25,-16.6015625,-16.11328125,-14.6484375,-27.83203125
1,1734116492903.1562,-17.08984375,-10.25390625,-23.4375,-33.69140625
2,1734116492907.0625,-15.625,-27.34375,-34.66796875,-33.69140625
3,1734116492910.9688,-6.8359375,-19.04296875,-36.1328125,-4.8828125
4,1734116492914.875,-11.23046875,-5.37109375,-30.2734375,-24.4140625
5,1734116492918.7812,-21.97265625,-15.13671875,-39.0625,-18.06640625
6,1734116492922.6875,-5.859375,-52.734375,-32.71484375,2.44140625
7,1734116492926.5938,15.13671875,-62.5,-27.34375,2.44140625
8,1734116492930.5,-27.34375,-14.16015625,-27.83203125,-31.25
9,1734116492934.4062,-27.34375,-11.71875,-20.01953125,-26.85546875
10,1734116492938.3125,-19.53125,-10.25390625,-24.90234375,-5.37109375
11,1734116492942.2188,-42.48046875,-8.30078125,-29.78515625,-30.76171875
0,1734116492946.125,-31.25,-17.08984375,-15.625,-46.875
1,1734116492950.0312,-45.41015625,12.20703125,-17.578125,-64.94140625
2,1734116492953.9375,-18.5546875,-17.08984375,-35.15625,-30.76171875
3,1734116492957.8438,11.71875,-44.43359375,-44.43359375,-14.16015625
4,1734116492961.75,4.39453125,-20.01953125,-43.45703125,-27.83203125
5,1734116492965.6562,-14.16015625,-24.4140625,-38.57421875,-23.4375
6,1734116492969.5625,12.6953125,-66.89453125,-37.59765625,-21.97265625
7,1734116492973.4688,5.859375,-36.62109375,-26.85546875,-39.0625
8,1734116492977.375,-22.4609375,-2.9296875,-24.90234375,-17.578125
9,1734116492981.2812,-17.578125,-22.94921875,-35.15625,-6.8359375
10,1734116492985.1875,-14.16015625,-42.48046875,-32.71484375,-49.8046875
11,1734116492989.0938,-5.859375,-33.69140625,-35.64453125,-54.6875
0,1734116492993,-73.73046875,-14.16015625,-30.2734375,-113.76953125
1,1734116492996.9062,-84.9609375,-38.0859375,-56.640625,-131.8359375
2,1734116493000.8125,-28.3203125,-57.12890625,-36.1328125,-58.59375
3,1734116493004.7188,-17.578125,-40.52734375,-9.27734375,-18.5546875
4,1734116493008.625,9.27734375,-35.15625,-52.734375,39.55078125
5,1734116493012.5312,15.625,-84.9609375,-48.33984375,36.62109375
6,1734116493016.4375,22.94921875,-115.234375,-40.52734375,23.4375
7,1734116493020.3438,-2.9296875,-48.33984375,-48.828125,-15.13671875
8,1734116493024.25,-16.6015625,-14.16015625,-42.48046875,-36.1328125
9,1734116493028.1562,8.30078125,-51.7578125,-39.0625,-11.23046875
10,1734116493032.0625,-11.23046875,-30.2734375,-44.921875,-8.7890625
11,1734116493035.9688,-4.39453125,-1.953125,-33.69140625,-15.625
0,1734116493039.875,15.625,-15.625,-17.08984375,-12.6953125
1,1734116493043.7812,-4.8828125,-11.71875,-15.625,-15.13671875
2,1734116493047.6875,-17.578125,1.953125,-25.87890625,-22.4609375
3,1734116493051.5938,-2.44140625,8.7890625,-35.64453125,-7.8125
4,1734116493055.5,0.48828125,-12.20703125,-33.69140625,-10.25390625
5,1734116493059.4062,-19.53125,-35.15625,-31.73828125,-20.5078125
6,1734116493063.3125,-39.55078125,-20.01953125,-36.1328125,-32.2265625
7,1734116493067.2188,-38.0859375,14.6484375,-36.62109375,-47.36328125
8,1734116493071.125,-18.5546875,3.90625,-37.59765625,-48.33984375
9,1734116493075.0312,-9.27734375,-10.7421875,-35.64453125,-31.73828125
10,1734116493078.9375,-19.53125,16.6015625,-26.3671875,-20.5078125
11,1734116493082.8438,-23.4375,15.13671875,-25.87890625,-19.04296875
0,1734116493086.75,-22.4609375,3.41796875,-31.25,-19.53125
1,1734116493090.6562,-16.6015625,4.8828125,-25.390625,-42.96875
2,1734116493094.5625,-27.34375,8.30078125,-20.01953125,-59.5703125
3,1734116493098.4688,-29.296875,10.7421875,-31.25,-60.546875
4,1734116493102.375,-28.80859375,0.48828125,-37.59765625,-52.24609375
5,1734116493106.2812,-44.43359375,-8.7890625,-39.0625,-39.0625
6,1734116493110.1875,-32.2265625,-3.90625,-38.0859375,-38.0859375
7,1734116493114.0938,-34.66796875,1.953125,-34.66796875,-67.87109375
8,1734116493118,-24.4140625,-33.69140625,-43.45703125,-38.0859375
9,1734116493121.9062,-8.7890625,-64.453125,-39.0625,11.23046875
10,1734116493125.8125,-38.57421875,-4.8828125,-31.25,-14.16015625
11,1734116493129.7188,-41.015625,25.390625,-26.3671875,-47.8515625
0,1734116493133.625,-32.2265625,7.8125,-27.34375,-53.7109375
1,1734116493137.5312,-20.99609375,7.32421875,-42.48046875,-24.90234375
2,1734116493141.4375,-18.5546875,6.34765625,-41.50390625,-9.27734375
3,1734116493145.3438,-32.2265625,-19.04296875,-12.20703125,-26.3671875
4,1734116493149.25,-40.52734375,-25.390625,-17.578125,-45.8984375
5,1734116493153.1562,-33.69140625,-24.4140625,-35.64453125,-49.31640625
6,1734116493157.0625,-27.83203125,-20.01953125,-38.0859375,-21.484375
7,1734116493160.9688,-40.0390625,-24.4140625,-32.71484375,-35.15625
8,1734116493164.875,-41.50390625,-49.8046875,-24.90234375,-49.31640625
9,1734116493168.7812,-47.8515625,-21.97265625,-21.97265625,-68.359375
10,1734116493172.6875,-24.90234375,-5.37109375,-28.80859375,-44.921875
11,1734116493176.5938,-9.765625,-33.69140625,-28.3203125,13.671875
0,1734116493180.5,-30.76171875,-33.203125,-24.90234375,3.90625
1,1734116493184.4062,-27.83203125,1.46484375,-34.1796875,-12.20703125
2,1734116493188.3125,-17.08984375,-1.46484375,-32.2265625,-26.85546875
3,1734116493192.2188,-15.625,-9.765625,-28.3203125,-16.11328125
4,1734116493196.125,-8.7890625,-9.765625,-24.4140625,6.8359375
5,1734116493200.0312,-24.90234375,-27.34375,-20.5078125,-50.78125
6,1734116493203.9375,-35.15625,-25.87890625,-27.83203125,-47.36328125
7,1734116493207.8438,-33.69140625,-39.55078125,-31.73828125,-43.45703125
8,1734116493211.75,-26.3671875,-52.24609375,-35.64453125,-35.15625
9,1734116493215.6562,-20.99609375,7.8125,-39.0625,-4.39453125
10,1734116493219.5625,-37.109375,18.5546875,-23.4375,-34.66796875
11,1734116493223.4688,-44.43359375,-13.18359375,-26.3671875,-19.53125
0,1734116493227.375,-30.76171875,-4.39453125,-21.97265625,-30.2734375
1,1734116493231.2812,-18.5546875,16.11328125,-17.578125,-37.59765625
2,1734116493235.1875,-17.08984375,10.25390625,-36.1328125,-11.23046875
3,1734116493239.0938,-18.5546875,-7.32421875,-36.62109375,-8.7890625
4,1734116493243,-50.78125,7.32421875,-20.99609375,-50.78125
5,1734116493246.9062,-31.73828125,0.48828125,-20.5078125,-59.08203125
6,1734116493250.8125,-8.30078125,-19.04296875,-32.2265625,-35.15625
7,1734116493254.7188,-31.25,-24.4140625,-36.1328125,-8.30078125
8,1734116493258.625,-51.26953125,5.859375,-19.53125,-68.84765625
9,1734116493262.5312,-34.1796875,16.6015625,-27.34375,-63.96484375
10,1734116493266.4375,-10.25390625,-14.6484375,-28.3203125,9.765625
11,1734116493270.3438,-16.6015625,-19.53125,-20.01953125,-29.78515625
0,1734116493274.25,-17.08984375,-0.48828125,-41.50390625,-46.38671875
1,1734116493278.1562,-34.66796875,4.39453125,-34.66796875,-37.109375
2,1734116493282.0625,-15.625,-28.3203125,-35.15625,-4.39453125
3,1734116493285.9688,8.7890625,-24.4140625,-32.2265625,-3.90625
4,1734116493289.875,-13.671875,-2.9296875,-19.53125,-15.13671875
5,1734116493293.7812,-32.71484375,-17.08984375,-31.73828125,-30.2734375
6,1734116493297.6875,-28.3203125,-38.0859375,-34.66796875,-53.22265625
7,1734116493301.5938,-26.85546875,-37.109375,-27.34375,-26.85546875
8,1734116493305.5,-24.90234375,-3.41796875,-42.96875,2.44140625
9,1734116493309.4062,-11.71875,-1.46484375,-31.25,2.9296875
10,1734116493313.3125,-0.9765625,-53.7109375,-18.5546875,4.8828125
11,1734116493317.2188,7.8125,-48.33984375,-23.4375,-13.18359375
0,1734116493321.125,-12.20703125,8.30078125,-22.94921875,-47.8515625
1,1734116493325.0312,-26.85546875,-11.71875,-17.578125,-28.3203125
2,1734116493328.9375,-10.7421875,-21.97265625,-29.296875,-10.7421875
3,1734116493332.8438,-14.16015625,-2.9296875,-41.9921875,-17.578125
4,1734116493336.75,-25.87890625,-13.671875,-27.34375,-11.71875
5,1734116493340.6562,-7.8125,-32.71484375,-18.5546875,1.953125
6,1734116493344.5625,-18.5546875,-66.89453125,-31.73828125,12.20703125
7,1734116493348.4688,-20.5078125,-33.203125,-33.69140625,-33.69140625
8,1734116493352.375,-12.20703125,18.5546875,-23.92578125,-77.63671875
9,1734116493356.2812,-19.53125,-21.97265625,-24.4140625,-23.92578125
10,1734116493360.1875,-51.7578125,-20.01953125,-33.69140625,-6.34765625
11,1734116493364.0938,-59.08203125,-4.39453125,-30.76171875,-39.55078125
0,1734116493368,-30.76171875,-15.13671875,-25.390625,-46.38671875
1,1734116493371.9062,-23.4375,-22.94921875,-17.08984375,-46.875
2,1734116493375.8125,-17.578125,-18.06640625,-13.671875,-37.59765625
3,1734116493379.7188,-42.96875,-5.859375,-28.80859375,-34.66796875
4,1734116493383.625,-43.45703125,-1.953125,-33.69140625,-46.875
5,1734116493387.5312,-13.18359375,-47.36328125,-6.8359375,-44.921875
6,1734116493391.4375,-9.765625,-60.546875,-2.44140625,-12.6953125
7,1734116493395.3438,-11.23046875,-23.92578125,-27.83203125,0.48828125
8,1734116493399.25,-14.16015625,-13.671875,-35.64453125,-20.01953125
9,1734116493403.1562,-15.13671875,-39.55078125,-23.4375,-36.1328125
10,1734116493407.0625,-8.7890625,-49.31640625,-20.99609375,3.90625
11,1734116493410.9688,-12.6953125,0,-23.4375,0.9765625
0,1734116493414.875,-12.6953125,4.8828125,-28.80859375,-18.5546875
1,1734116493418.7812,-12.20703125,-10.7421875,-33.69140625,-3.90625
2,1734116493422.6875,-21.484375,1.953125,-25.87890625,-23.92578125
3,1734116493426.5938,-21.97265625,10.7421875,-29.78515625,-23.4375
4,1734116493430.5,-7.8125,-14.16015625,-33.69140625,6.8359375
5,1734116493434.4062,-1.46484375,-31.25,-28.3203125,8.7890625
6,1734116493438.3125,-13.18359375,-19.53125,-28.3203125,-20.99609375
7,1734116493442.2188,-24.90234375,7.8125,-33.203125,-30.76171875
8,1734116493446.125,-20.5078125,-0.9765625,-32.71484375,-2.44140625
9,1734116493450.0312,-17.578125,-28.3203125,-29.296875,2.44140625
10,1734116493453.9375,-39.55078125,-3.90625,-31.25,-23.92578125
11,1734116493457.8438,-38.57421875,13.671875,-29.78515625,-37.59765625
0,1734116493461.75,-15.13671875,-17.08984375,-24.4140625,-31.73828125
1,1734116493465.6562,-17.578125,-32.2265625,-17.08984375,-35.15625
2,1734116493469.5625,-45.41015625,13.671875,-34.1796875,-27.83203125
3,1734116493473.4688,-51.7578125,19.04296875,-43.45703125,-25.390625
4,1734116493477.375,-16.6015625,0.9765625,-31.25,-25.390625
5,1734116493481.2812,0.48828125,-10.25390625,-31.25,-2.9296875
6,1734116493485.1875,-46.38671875,4.39453125,-38.57421875,-20.01953125
7,1734116493489.0938,-43.9453125,5.859375,-34.66796875,-21.97265625
8,1734116493493,11.23046875,-40.52734375,-29.296875,0.48828125
9,1734116493496.9062,16.11328125,-34.1796875,-34.1796875,10.7421875
10,1734116493500.8125,-27.34375,35.64453125,-40.52734375,-23.4375
11,1734116493504.7188,-25.390625,18.5546875,-29.296875,-27.34375
0,1734116493508.625,-24.90234375,-6.8359375,-29.78515625,-35.15625
1,1734116493512.5312,-27.83203125,14.16015625,-37.59765625,-49.8046875
2,1734116493516.4375,-38.0859375,16.11328125,-29.78515625,-38.57421875
3,1734116493520.3438,-16.11328125,7.32421875,-36.1328125,-3.41796875
4,1734116493524.25,2.9296875,-11.23046875,-27.83203125,25.390625
5,1734116493528.1562,2.44140625,-13.18359375,-27.83203125,-3.41796875
6,1734116493532.0625,0.9765625,-10.7421875,-31.73828125,-16.6015625
7,1734116493535.9688,-12.20703125,-23.92578125,-23.92578125,-2.44140625
8,1734116493539.875,-11.71875,-36.1328125,-31.25,2.9296875
9,1734116493543.7812,-27.34375,-4.39453125,-30.2734375,-22.4609375
10,1734116493547.6875,-41.50390625,7.32421875,-8.7890625,-30.2734375
11,1734116493551.5938,-54.19921875,-11.23046875,-23.4375,-4.39453125
0,1734116493555.5,-38.0859375,-19.04296875,-20.01953125,-7.8125
1,1734116493559.4062,-18.06640625,-13.671875,-20.99609375,-0.9765625
2,1734116493563.3125,-27.83203125,-13.18359375,-38.57421875,10.25390625
3,1734116493567.2188,-28.3203125,-36.62109375,-33.203125,-5.859375
4,1734116493571.125,-13.18359375,-37.59765625,-32.71484375,-14.16015625
5,1734116493575.0312,-19.53125,-34.1796875,-31.73828125,-18.5546875
6,1734116493578.9375,-31.73828125,-15.625,-33.69140625,-27.83203125
7,1734116493582.8438,-21.97265625,-33.69140625,-31.25,-24.4140625
8,1734116493586.75,-43.45703125,-46.38671875,-31.73828125,-16.11328125
9,1734116493590.6562,-96.6796875,35.15625,-39.0625,-46.875
10,1734116493594.5625,-79.1015625,22.94921875,-30.2734375,-79.58984375
11,1734116493598.4688,-41.015625,-38.0859375,-29.78515625,-52.734375
0,1734116493602.375,-56.15234375,-14.16015625,-37.109375,-30.76171875
1,1734116493606.2812,-40.52734375,0,-26.85546875,-40.52734375
2,1734116493610.1875,-20.01953125,-4.8828125,-31.73828125,-10.25390625
3,1734116493614.0938,7.8125,-11.71875,-30.2734375,1.46484375
4,1734116493618,-18.06640625,2.44140625,-29.78515625,-36.1328125
5,1734116493621.9062,-47.8515625,-14.16015625,-29.296875,-25.87890625
6,1734116493625.8125,-8.7890625,-48.33984375,-24.4140625,4.39453125
7,1734116493629.7188,14.6484375,-73.73046875,-28.3203125,-14.16015625
8,1734116493633.625,-13.18359375,-39.0625,-34.1796875,-43.9453125
9,1734116493637.5312,-32.71484375,4.8828125,-39.0625,-51.26953125
10,1734116493641.4375,-46.875,-23.4375,-35.15625,-49.8046875
11,1734116493645.3438,-36.62109375,-16.6015625,-21.484375,-22.4609375
0,1734116493649.25,-3.41796875,0.48828125,-17.08984375,3.90625
1,1734116493653.1562,-0.48828125,2.9296875,-31.73828125,-12.6953125
2,1734116493657.0625,-3.90625,-18.06640625,-32.2265625,-17.578125
3,1734116493660.9688,-15.13671875,-17.578125,-29.78515625,-10.25390625
4,1734116493664.875,-28.80859375,0.48828125,-24.90234375,-20.01953125
5,1734116493668.7812,-16.6015625,-30.76171875,-21.484375,-29.78515625
6,1734116493672.6875,-20.01953125,-41.50390625,-35.64453125,-10.25390625
7,1734116493676.5938,-23.92578125,-43.9453125,-34.66796875,-2.44140625
8,1734116493680.5,-36.62109375,-17.578125,-26.3671875,-5.859375
9,1734116493684.4062,-63.96484375,25.390625,-34.66796875,-32.2265625
10,1734116493688.3125,-38.0859375,-29.296875,-34.66796875,-9.27734375
11,1734116493692.2188,8.7890625,-40.52734375,-27.83203125,7.8125
0,1734116493696.125,27.34375,-6.34765625,-22.4609375,-3.90625
1,1734116493700.0312,-10.25390625,0.48828125,-28.3203125,-8.30078125
2,1734116493703.9375,-34.66796875,-9.765625,-28.80859375,-3.41796875
3,1734116493707.8438,-38.0859375,-17.578125,-25.87890625,-5.37109375
4,1734116493711.75,15.625,-9.27734375,-25.87890625,-10.25390625
5,1734116493715.6562,-5.859375,-33.203125,-24.4140625,6.8359375
6,1734116493719.5625,-41.015625,-48.33984375,-24.4140625,7.32421875
7,1734116493723.4688,-12.20703125,-19.04296875,-22.4609375,-4.8828125
8,1734116493727.375,19.53125,-4.39453125,-24.4140625,1.46484375
9,1734116493731.2812,-39.55078125,-29.78515625,-28.80859375,-9.765625
10,1734116493735.1875,-58.10546875,-47.36328125,-23.92578125,-3.41796875
11,1734116493739.0938,-47.8515625,40.52734375,-37.59765625,-10.7421875
0,1734116493743,-68.359375,14.16015625,-31.25,-15.625
1,1734116493746.9062,38.57421875,-70.3125,-12.6953125,27.34375
2,1734116493750.8125,6.34765625,-14.6484375,-30.2734375,9.27734375
3,1734116493754.7188,-45.41015625,-18.5546875,-27.34375,-11.23046875
4,1734116493758.625,25.390625,-34.1796875,-19.53125,2.44140625
5,1734116493762.5312,-14.16015625,-37.59765625,-27.83203125,-2.44140625
6,1734116493766.4375,-38.57421875,-35.64453125,-35.15625,-9.765625
7,1734116493770.3438,0.9765625,-37.59765625,-33.69140625,7.32421875
8,1734116493774.25,28.3203125,-54.19921875,-25.390625,16.6015625
9,1734116493778.1562,-37.109375,-57.12890625,-25.390625,11.23046875
10,1734116493782.0625,-66.40625,-67.3828125,-27.83203125,20.99609375
11,1734116493785.9688,-10.7421875,-11.23046875,-25.87890625,10.25390625
0,1734116493789.875,13.671875,-9.27734375,-24.4140625,-1.953125
1,1734116493793.7812,-21.484375,-24.90234375,-22.94921875,2.9296875
2,1734116493797.6875,-8.7890625,-1.953125,-23.92578125,1.953125
3,1734116493801.5938,-55.6640625,3.90625,-33.203125,-25.390625
4,1734116493805.5,-64.94140625,-11.71875,-36.62109375,-32.71484375
5,1734116493809.4062,-31.25,-19.04296875,-32.2265625,-17.578125
6,1734116493813.3125,-17.08984375,-28.3203125,-33.69140625,-15.13671875
7,1734116493817.2188,-41.50390625,8.7890625,-40.0390625,-32.2265625
8,1734116493821.125,-70.3125,32.71484375,-30.76171875,-34.66796875
9,1734116493825.0312,38.0859375,-46.38671875,-8.7890625,13.18359375
10,1734116493828.9375,31.25,-33.69140625,-24.90234375,27.83203125
11,1734116493832.8438,-44.921875,-4.8828125,-35.64453125,-13.671875
0,1734116493836.75,-52.734375,-12.6953125,-24.4140625,-54.19921875
1,1734116493840.6562,0.48828125,-8.7890625,-24.4140625,-5.859375
2,1734116493844.5625,3.90625,-17.578125,-28.3203125,23.92578125
3,1734116493848.4688,-55.17578125,-20.01953125,-12.6953125,-85.44921875
4,1734116493852.375,-60.05859375,-39.0625,-10.25390625,-72.265625
5,1734116493856.2812,-10.25390625,-49.8046875,-29.78515625,49.8046875
6,1734116493860.1875,12.6953125,-51.7578125,-26.3671875,19.04296875
7,1734116493864.0938,-32.71484375,-27.83203125,-30.76171875,-17.08984375
8,1734116493868,-21.97265625,-61.03515625,-28.3203125,19.53125
9,1734116493871.9062,-22.4609375,-85.44921875,-11.23046875,-25.390625
10,1734116493875.8125,-67.3828125,-6.34765625,-19.53125,-74.70703125
11,1734116493879.7188,-26.3671875,10.25390625,-43.45703125,-14.6484375
0,1734116493883.625,5.859375,-27.34375,-20.5078125,-20.99609375
1,1734116493887.5312,-15.625,-37.109375,-13.671875,-42.96875
2,1734116493891.4375,-10.7421875,-17.578125,-30.2734375,-32.71484375
3,1734116493895.3438,-10.25390625,-23.4375,-24.4140625,-19.53125
4,1734116493899.25,-9.27734375,-33.203125,-28.80859375,-7.32421875
5,1734116493903.1562,-49.8046875,-10.7421875,-25.390625,-49.31640625
6,1734116493907.0625,-57.12890625,-10.25390625,-26.85546875,-46.38671875
7,1734116493910.9688,-31.25,-28.80859375,-19.53125,-11.71875
8,1734116493914.875,6.8359375,-49.31640625,-20.01953125,-17.08984375
9,1734116493918.7812,3.90625,-19.53125,-33.69140625,2.44140625
10,1734116493922.6875,-51.26953125,14.6484375,-28.80859375,-28.80859375
11,1734116493926.5938,-25.87890625,-7.8125,-20.5078125,-51.26953125
0,1734116493930.5,23.4375,6.8359375,-29.78515625,-13.18359375
1,1734116493934.4062,11.71875,25.390625,-47.8515625,-22.4609375
2,1734116493938.3125,-5.37109375,17.578125,-42.96875,-43.45703125
3,1734116493942.2188,-20.5078125,10.25390625,-36.1328125,-16.11328125
4,1734116493946.125,-23.92578125,1.46484375,-18.5546875,-39.0625
5,1734116493950.0312,7.8125,-15.625,-28.3203125,-33.69140625
6,1734116493953.9375,-8.7890625,-0.9765625,-41.50390625,31.73828125
7,1734116493957.8438,14.6484375,-31.25,-39.55078125,24.90234375
8,1734116493961.75,9.765625,-58.10546875,-35.15625,-12.20703125
9,1734116493965.6562,-23.92578125,19.04296875,-24.90234375,-31.25
10,1734116493969.5625,3.41796875,29.78515625,-25.390625,-15.13671875
11,1734116493973.4688,1.46484375,-13.18359375,-24.90234375,13.671875
0,1734116493977.375,-2.9296875,2.44140625,-30.76171875,-3.41796875
1,1734116493981.2812,-36.1328125,5.859375,-13.671875,-65.4296875
2,1734116493985.1875,-45.8984375,-2.9296875,-24.4140625,-67.87109375
3,1734116493989.0938,-9.765625,-7.32421875,-45.8984375,-9.27734375
4,1734116493993,-34.1796875,-9.27734375,-26.3671875,-1.46484375
5,1734116493996.9062,-34.66796875,-14.6484375,-24.4140625,-13.671875
6,1734116494000.8125,-12.20703125,-43.45703125,-21.484375,-27.83203125
7,1734116494004.7188,-40.0390625,-45.41015625,-11.23046875,-25.390625
8,1734116494008.625,-50.29296875,-5.859375,-32.71484375,-33.69140625
9,1734116494012.5312,-6.34765625,0,-49.8046875,4.39453125
10,1734116494016.4375,-10.7421875,-35.64453125,-36.62109375,-23.92578125
11,1734116494020.3438,-17.578125,-41.50390625,-28.3203125,-47.36328125
0,1734116494024.25,-37.59765625,15.625,-32.2265625,-18.5546875
1,1734116494028.1562,-35.64453125,3.90625,-28.80859375,-25.87890625
2,1734116494032.0625,0.48828125,-60.05859375,-12.20703125,-2.9296875
3,1734116494035.9688,19.04296875,-27.34375,-28.80859375,-13.671875
4,1734116494039.875,-6.34765625,7.8125,-41.50390625,-22.94921875
5,1734116494043.7812,-26.85546875,-11.23046875,-29.78515625,-43.45703125
6,1734116494047.6875,-0.9765625,-33.203125,-17.578125,-31.73828125
7,1734116494051.5938,-21.97265625,-50.78125,-29.296875,-12.20703125
8,1734116494055.5,-40.52734375,-8.30078125,-39.55078125,-25.390625
9,1734116494059.4062,-1.46484375,6.34765625,-36.62109375,-21.97265625
10,1734116494063.3125,7.8125,-29.78515625,-35.64453125,-36.1328125
11,1734116494067.2188,-24.4140625,-5.859375,-38.57421875,-48.33984375
0,1734116494071.125,-29.78515625,8.7890625,-37.109375,-43.9453125
1,1734116494075.0312,-16.11328125,-2.9296875,-33.203125,-37.59765625
2,1734116494078.9375,-28.3203125,-22.4609375,-10.7421875,-54.19921875
3,1734116494082.8438,-17.578125,-10.25390625,-12.20703125,-32.2265625
4,1734116494086.75,0.9765625,11.71875,-31.25,11.23046875
5,1734116494090.6562,-17.08984375,-14.16015625,-30.76171875,-9.27734375
6,1734116494094.5625,-42.96875,-33.203125,-13.18359375,-35.15625
7,1734116494098.4688,-31.25,-5.859375,-29.296875,-65.4296875
8,1734116494102.375,9.765625,20.5078125,-49.8046875,-36.1328125
9,1734116494106.2812,22.94921875,8.30078125,-35.15625,0
10,1734116494110.1875,16.11328125,3.41796875,-35.64453125,-3.90625
11,1734116494114.0938,-35.64453125,15.625,-22.94921875,-23.92578125
0,1734116494118,-13.671875,8.30078125,-11.71875,-33.69140625
1,1734116494121.9062,13.18359375,-17.578125,-12.6953125,-25.390625
2,1734116494125.8125,-20.01953125,-6.34765625,-22.94921875,-47.36328125
3,1734116494129.7188,-24.4140625,0.48828125,-26.3671875,-42.96875
4,1734116494133.625,0.9765625,18.5546875,-5.859375,-2.9296875
5,1734116494137.5312,8.7890625,-9.27734375,0.48828125,-9.765625
6,1734116494141.4375,-12.6953125,-47.36328125,-36.62109375,-23.92578125
7,1734116494145.3438,-42.96875,-2.44140625,-47.36328125,-19.04296875
8,1734116494149.25,-40.52734375,20.01953125,-20.5078125,-26.85546875
9,1734116494153.1562,-7.32421875,-10.7421875,-18.06640625,-17.578125
10,1734116494157.0625,0.48828125,-26.3671875,-33.203125,12.6953125
11,1734116494160.9688,-15.625,20.01953125,-38.57421875,-1.953125
0,1734116494164.875,-5.859375,11.71875,-26.3671875,-13.18359375
1,1734116494168.7812,-10.7421875,-2.9296875,-22.94921875,-27.83203125
2,1734116494172.6875,-22.94921875,0.9765625,-24.90234375,-25.390625
3,1734116494176.5938,-28.80859375,-2.9296875,-20.01953125,-29.78515625
4,1734116494180.5,-19.04296875,-7.32421875,-28.80859375,-43.9453125
5,1734116494184.4062,-18.5546875,-17.08984375,-35.64453125,-27.34375
6,1734116494188.3125,-25.87890625,-20.99609375,-34.1796875,-16.6015625
7,1734116494192.2188,-13.18359375,-21.97265625,-34.1796875,-13.671875
8,1734116494196.125,6.34765625,-27.83203125,-29.78515625,-15.13671875
9,1734116494200.0312,20.01953125,-51.26953125,-21.484375,-5.859375
10,1734116494203.9375,12.6953125,-24.90234375,-30.2734375,-8.7890625
11,1734116494207.8438,-19.04296875,13.671875,-32.71484375,-8.7890625
0,1734116494211.75,-30.2734375,14.6484375,-28.3203125,-8.30078125
1,1734116494215.6562,-10.25390625,12.6953125,-26.3671875,-32.71484375
2,1734116494219.5625,-11.71875,24.4140625,-33.203125,-40.0390625
3,1734116494223.4688,5.37109375,7.32421875,-27.83203125,-4.8828125
4,1734116494227.375,-0.48828125,-12.6953125,-23.4375,2.44140625
5,1734116494231.2812,-41.9921875,7.8125,-35.15625,-21.97265625
6,1734116494235.1875,-18.5546875,-5.37109375,-31.73828125,-21.97265625
7,1734116494239.0938,-19.04296875,2.44140625,-32.71484375,-29.296875
8,1734116494243,-20.5078125,-24.90234375,-36.62109375,-21.484375
9,1734116494246.9062,-12.6953125,-69.82421875,-39.55078125,-11.23046875
10,1734116494250.8125,-37.109375,-1.953125,-35.15625,-43.45703125
11,1734116494254.7188,-10.25390625,22.4609375,-26.3671875,-41.50390625
0,1734116494258.625,6.8359375,7.8125,-27.34375,-26.85546875
1,1734116494262.5312,5.37109375,3.90625,-18.06640625,-21.97265625
2,1734116494266.4375,-11.71875,3.41796875,-14.16015625,-34.66796875
3,1734116494270.3438,-40.0390625,16.6015625,-23.4375,-48.33984375
4,1734116494274.25,-15.13671875,7.8125,-30.76171875,-18.5546875
5,1734116494278.1562,9.765625,-20.99609375,-29.78515625,-12.6953125
6,1734116494282.0625,-14.16015625,-29.296875,-28.3203125,-30.2734375
7,1734116494285.9688,-24.4140625,-28.3203125,-25.87890625,-48.33984375
8,1734116494289.875,-15.13671875,-25.87890625,-29.78515625,-39.0625
9,1734116494293.7812,-41.50390625,-9.765625,-26.3671875,-26.85546875
10,1734116494297.6875,-30.76171875,-11.71875,-20.5078125,-34.1796875
11,1734116494301.5938,12.20703125,-21.484375,-32.2265625,-15.625
0,1734116494305.5,10.7421875,-27.34375,-38.57421875,-1.46484375
1,1734116494309.4062,-5.37109375,-9.765625,-31.25,-9.27734375
2,1734116494313.3125,-28.3203125,-16.6015625,-24.90234375,-13.18359375
3,1734116494317.2188,-30.2734375,-39.0625,-27.34375,-26.3671875
4,1734116494321.125,-20.99609375,-28.80859375,-30.2734375,-37.59765625
5,1734116494325.0312,-20.01953125,-24.4140625,-32.2265625,-22.94921875
6,1734116494328.9375,-30.2734375,-34.66796875,-32.2265625,-41.50390625
7,1734116494332.8438,-10.7421875,-80.078125,-28.80859375,-44.921875
8,1734116494336.75,2.9296875,-87.890625,-29.78515625,-18.5546875
9,1734116494340.6562,-20.99609375,-25.390625,-30.2734375,-41.9921875
10,1734116494344.5625,-23.4375,-17.08984375,-28.80859375,-32.71484375
11,1734116494348.4688,-24.90234375,-29.296875,-23.92578125,-8.30078125
0,1734116494352.375,-26.3671875,-40.0390625,-25.87890625,-9.27734375
1,1734116494356.2812,-26.3671875,-37.109375,-31.73828125,-12.20703125
2,1734116494360.1875,-23.92578125,-20.99609375,-31.73828125,-35.64453125
3,1734116494364.0938,-17.578125,-38.57421875,-32.2265625,-32.2265625
4,1734116494368,-24.90234375,-34.66796875,-30.2734375,-20.99609375
5,1734116494371.9062,-20.01953125,-32.2265625,-29.78515625,-15.625
6,1734116494375.8125,-35.64453125,-40.0390625,-35.64453125,-40.0390625
7,1734116494379.7188,-27.83203125,-62.98828125,-34.66796875,-33.69140625
8,1734116494383.625,-8.30078125,-45.41015625,-26.85546875,-4.8828125
9,1734116494387.5312,-15.625,-10.7421875,-28.80859375,-15.625
10,1734116494391.4375,-11.23046875,-31.25,-33.203125,-32.2265625
11,1734116494395.3438,-15.625,-37.109375,-31.25,-29.296875
0,1734116494399.25,-17.578125,-18.06640625,-27.34375,-19.04296875
1,1734116494403.1562,-12.6953125,-25.87890625,-20.99609375,-15.625
2,1734116494407.0625,-20.01953125,-41.015625,-18.5546875,-31.25
3,1734116494410.9688,-7.32421875,-30.2734375,-20.5078125,-30.76171875
4,1734116494414.875,1.953125,-25.390625,-26.3671875,-4.8828125
5,1734116494418.7812,-15.13671875,-32.71484375,-32.71484375,-6.8359375
6,1734116494422.6875,-5.859375,-57.6171875,-24.4140625,6.8359375
7,1734116494426.5938,-2.44140625,-78.125,-25.390625,11.71875
8,1734116494430.5,-15.13671875,-26.3671875,-22.94921875,-20.5078125
9,1734116494434.4062,-30.76171875,-2.44140625,-25.87890625,-33.203125
10,1734116494438.3125,-44.43359375,-30.76171875,-22.4609375,-34.1796875
11,1734116494442.2188,-37.59765625,-21.484375,-25.390625,-10.25390625
0,1734116494446.125,-22.94921875,-9.765625,-32.2265625,18.5546875
1,1734116494450.0312,1.46484375,-24.4140625,-27.34375,17.08984375
2,1734116494453.9375,6.34765625,-32.71484375,-21.97265625,13.671875
3,1734116494457.8438,-24.90234375,-38.0859375,11.71875,-49.8046875
4,1734116494461.75,-24.90234375,-27.34375,-3.90625,-68.84765625
5,1734116494465.6562,1.953125,-35.64453125,-46.875,23.92578125
6,1734116494469.5625,0,-64.94140625,-37.109375,31.73828125
7,1734116494473.4688,8.7890625,-36.1328125,-22.94921875,-8.7890625
8,1734116494477.375,-10.25390625,-19.04296875,-11.23046875,-55.17578125
9,1734116494481.2812,-22.94921875,-49.31640625,-22.94921875,-35.15625
10,1734116494485.1875,-7.32421875,-63.96484375,-45.8984375,-7.32421875
11,1734116494489.0938,-31.73828125,-34.1796875,-39.0625,-40.0390625
0,1734116494493,-46.38671875,-32.2265625,-23.4375,-20.99609375
1,1734116494496.9062,-22.94921875,-43.9453125,-26.85546875,12.6953125
2,1734116494500.8125,-2.44140625,-27.34375,-49.31640625,12.6953125
3,1734116494504.7188,-3.41796875,-21.97265625,-48.33984375,0.48828125
4,1734116494508.625,-12.6953125,-43.9453125,-26.85546875,-3.41796875
5,1734116494512.5312,-20.5078125,-72.75390625,-25.87890625,-9.27734375
6,1734116494516.4375,-16.11328125,-69.82421875,-44.921875,-14.6484375
7,1734116494520.3438,-0.48828125,-48.828125,-45.8984375,3.41796875
8,1734116494524.25,-9.765625,-28.3203125,-36.62109375,0.48828125
9,1734116494528.1562,-0.48828125,-47.8515625,-36.62109375,-8.30078125
10,1734116494532.0625,1.953125,-63.96484375,-42.48046875,-1.953125
11,1734116494535.9688,-18.5546875,-7.32421875,-41.015625,-1.46484375
0,1734116494539.875,-8.7890625,-0.9765625,-41.015625,-1.46484375
1,1734116494543.7812,8.7890625,-15.13671875,-30.2734375,-4.39453125
2,1734116494547.6875,1.46484375,-0.9765625,-33.203125,-4.8828125
3,1734116494551.5938,-12.6953125,-1.953125,-35.15625,-4.39453125
4,1734116494555.5,-13.671875,-12.20703125,-31.73828125,-3.41796875
5,1734116494559.4062,-10.7421875,-23.4375,-41.50390625,-2.9296875
6,1734116494563.3125,-20.5078125,-12.6953125,-41.015625,-26.85546875
7,1734116494567.2188,-31.73828125,8.7890625,-32.2265625,-35.64453125
8,1734116494571.125,-16.11328125,7.32421875,-33.69140625,-26.3671875
9,1734116494575.0312,-20.5078125,4.39453125,-43.9453125,-21.484375
10,1734116494578.9375,-8.30078125,24.4140625,-46.38671875,-12.20703125
11,1734116494582.8438,4.39453125,34.1796875,-44.43359375,-9.765625
0,1734116494586.75,-9.765625,17.08984375,-40.52734375,-14.6484375
1,1734116494590.6562,-12.20703125,-4.8828125,-35.15625,-15.13671875
2,1734116494594.5625,-14.6484375,23.92578125,-37.109375,-17.08984375
3,1734116494598.4688,-17.08984375,31.25,-23.4375,-28.80859375
4,1734116494602.375,-31.73828125,9.765625,-18.5546875,-34.1796875
5,1734116494606.2812,-30.76171875,-0.9765625,-31.73828125,-38.57421875
6,1734116494610.1875,-24.4140625,9.765625,-40.52734375,-37.59765625
7,1734116494614.0938,-22.94921875,19.04296875,-41.9921875,-6.34765625
8,1734116494618,-15.625,-17.08984375,-37.109375,0.9765625
9,1734116494621.9062,-18.5546875,-31.25,-39.0625,-19.04296875
10,1734116494625.8125,-25.87890625,19.53125,-31.25,-30.2734375
11,1734116494629.7188,-36.1328125,25.390625,-30.76171875,-38.57421875
0,1734116494633.625,-41.50390625,15.13671875,-58.10546875,-30.2734375
1,1734116494637.5312,-36.1328125,9.27734375,-47.8515625,-32.71484375
2,1734116494641.4375,-29.78515625,7.32421875,-35.15625,-21.484375
3,1734116494645.3438,-17.08984375,-6.34765625,-33.69140625,-8.7890625
4,1734116494649.25,-15.625,-20.5078125,-36.62109375,-21.97265625
5,1734116494653.1562,-20.99609375,-21.484375,-34.1796875,-18.06640625
6,1734116494657.0625,-31.73828125,-11.71875,-26.3671875,-17.578125
7,1734116494660.9688,-19.53125,-22.4609375,-21.484375,-22.94921875
8,1734116494664.875,4.8828125,-36.1328125,-22.94921875,-17.08984375
9,1734116494668.7812,3.90625,-2.44140625,-28.3203125,-21.484375
10,1734116494672.6875,-6.34765625,18.5546875,-36.1328125,-13.671875
11,1734116494676.5938,-17.578125,12.20703125,-34.66796875,-14.6484375
0,1734116494680.5,-9.27734375,3.90625,-25.390625,-5.859375
1,1734116494684.4062,-5.859375,14.6484375,-23.4375,-1.953125
2,1734116494688.3125,-15.625,16.11328125,-29.296875,-36.1328125
3,1734116494692.2188,-2.9296875,-20.5078125,-29.78515625,-23.92578125
4,1734116494696.125,0,-16.11328125,-30.2734375,16.11328125
5,1734116494700.0312,-17.08984375,-11.23046875,-27.34375,1.46484375
6,1734116494703.9375,-6.8359375,-13.671875,-18.06640625,-4.8828125
7,1734116494707.8438,-5.37109375,-27.34375,-19.53125,-2.44140625
8,1734116494711.75,-18.5546875,-55.17578125,-28.3203125,-8.30078125
9,1734116494715.6562,-25.87890625,1.953125,-35.15625,-45.41015625
10,1734116494719.5625,-26.85546875,27.34375,-30.2734375,-39.0625
11,1734116494723.4688,-24.90234375,11.23046875,-30.2734375,0.9765625
0,1734116494727.375,-9.765625,-1.46484375,-36.1328125,-11.23046875
1,1734116494731.2812,-2.9296875,-8.7890625,-31.73828125,-17.08984375
2,1734116494735.1875,-6.8359375,-15.625,-28.3203125,-8.7890625
3,1734116494739.0938,-5.859375,-19.04296875,-20.99609375,-19.04296875
4,1734116494743,5.37109375,0.9765625,-24.90234375,-22.94921875
5,1734116494746.9062,-15.13671875,-7.8125,-40.0390625,-15.13671875
6,1734116494750.8125,-31.73828125,-36.1328125,-26.85546875,-7.32421875
7,1734116494754.7188,-11.23046875,-64.94140625,-21.97265625,-4.39453125
8,1734116494758.625,-13.18359375,-37.109375,-21.97265625,-33.69140625
9,1734116494762.5312,-24.90234375,10.7421875,-32.2265625,-43.9453125
10,1734116494766.4375,-20.01953125,-18.5546875,-23.92578125,-9.27734375
11,1734116494770.3438,-20.5078125,-34.1796875,-12.6953125,18.5546875
0,1734116494774.25,-15.13671875,0,-38.0859375,-6.34765625
1,1734116494778.1562,-12.6953125,0.48828125,-43.45703125,-29.78515625
2,1734116494782.0625,-12.20703125,-21.484375,-42.48046875,-12.20703125
3,1734116494785.9688,-22.4609375,-27.34375,-30.2734375,-1.46484375
4,1734116494789.875,-21.484375,-24.4140625,-26.3671875,-15.625
5,1734116494793.7812,-19.53125,-35.64453125,-27.34375,-22.4609375
6,1734116494797.6875,-8.7890625,-64.94140625,-40.0390625,6.34765625
7,1734116494801.5938,-15.13671875,-75.68359375,-27.34375,-36.1328125
8,1734116494805.5,-13.671875,-38.57421875,-19.53125,-29.296875
9,1734116494809.4062,0,-22.94921875,-47.36328125,16.11328125
10,1734116494813.3125,-9.765625,-65.91796875,-36.1328125,11.71875
11,1734116494817.2188,-14.6484375,-67.3828125,-22.94921875,-26.3671875
0,1734116494821.125,-14.16015625,-12.20703125,-18.06640625,-28.3203125
1,1734116494825.0312,-12.20703125,-22.94921875,-17.08984375,8.30078125
2,1734116494828.9375,-6.34765625,-30.2734375,-28.3203125,3.90625
3,1734116494832.8438,-3.41796875,-17.08984375,-34.1796875,-0.9765625
4,1734116494836.75,-6.8359375,-25.390625,-33.203125,-11.71875
5,1734116494840.6562,-7.8125,-48.33984375,-30.76171875,-10.25390625
6,1734116494844.5625,-11.23046875,-68.84765625,-23.4375,19.53125
7,1734116494848.4688,0.9765625,-28.80859375,-22.94921875,10.25390625
8,1734116494852.375,0.9765625,3.41796875,-23.92578125,-13.671875
9,1734116494856.2812,-21.484375,-12.6953125,-26.3671875,-41.015625
10,1734116494860.1875,-23.92578125,-26.85546875,-33.69140625,-21.484375
11,1734116494864.0938,-17.08984375,-15.13671875,-32.71484375,10.7421875
0,1734116494868,-6.34765625,-2.44140625,-21.97265625,-13.18359375
1,1734116494871.9062,3.90625,-29.78515625,-25.87890625,-18.06640625
2,1734116494875.8125,-13.18359375,-31.73828125,-32.71484375,-0.9765625
3,1734116494879.7188,-22.4609375,7.32421875,-25.87890625,5.37109375
4,1734116494883.625,-17.578125,10.7421875,-22.4609375,-28.80859375
5,1734116494887.5312,-17.578125,-25.87890625,-27.83203125,-25.87890625
6,1734116494891.4375,-22.4609375,-27.83203125,-21.97265625,1.46484375
7,1734116494895.3438,-20.01953125,-3.90625,-23.92578125,-29.296875
8,1734116494899.25,-13.671875,-1.953125,-37.59765625,-44.43359375
9,1734116494903.1562,-12.20703125,-41.50390625,-28.3203125,-26.3671875
10,1734116494907.0625,-23.92578125,-50.29296875,-19.04296875,-37.109375
11,1734116494910.9688,-17.08984375,15.13671875,-29.78515625,-14.16015625
0,1734116494914.875,0.9765625,12.6953125,-30.76171875,4.39453125
1,1734116494918.7812,-1.46484375,-4.39453125,-33.69140625,-11.23046875
2,1734116494922.6875,-2.9296875,6.8359375,-34.66796875,1.46484375
3,1734116494926.5938,-18.06640625,18.5546875,-30.76171875,-5.859375
4,1734116494930.5,-18.5546875,1.953125,-28.3203125,-10.7421875
5,1734116494934.4062,3.41796875,-26.85546875,-17.08984375,-3.90625
6,1734116494938.3125,1.953125,-15.625,-20.01953125,0
7,1734116494942.2188,-11.23046875,5.859375,-28.3203125,-5.37109375
8,1734116494946.125,-26.3671875,-10.7421875,-28.80859375,-18.06640625
9,1734116494950.0312,-23.4375,-35.64453125,-34.66796875,-14.16015625
10,1734116494953.9375,-14.6484375,-2.9296875,-33.203125,-20.01953125
11,1734116494957.8438,-0.9765625,13.18359375,-24.4140625,-23.4375
0,1734116494961.75,0.9765625,-7.8125,-24.90234375,-12.20703125
1,1734116494965.6562,-23.4375,-7.8125,-24.90234375,-17.08984375
2,1734116494969.5625,-26.85546875,5.37109375,-27.34375,-39.0625
3,1734116494973.4688,-22.4609375,-11.71875,-26.85546875,-53.7109375
4,1734116494977.375,-22.94921875,-42.48046875,-20.99609375,-33.203125
5,1734116494981.2812,-19.04296875,-43.9453125,-30.2734375,-18.5546875
6,1734116494985.1875,-18.5546875,-27.83203125,-31.73828125,-25.390625
7,1734116494989.0938,-27.34375,-20.99609375,-23.92578125,-38.0859375
8,1734116494993,-23.92578125,-39.55078125,-27.34375,-16.6015625
9,1734116494996.9062,-7.32421875,-51.26953125,-30.76171875,-2.9296875
10,1734116495000.8125,-21.97265625,3.90625,-35.15625,-37.59765625
11,1734116495004.7188,-18.5546875,15.13671875,-36.62109375,-32.2265625
0,1734116495008.625,-6.34765625,-2.44140625,-31.25,-13.18359375
1,1734116495012.5312,-16.6015625,-2.9296875,-30.2734375,-22.94921875
2,1734116495016.4375,-32.2265625,6.8359375,-27.83203125,-42.96875
3,1734116495020.3438,-37.59765625,-8.30078125,-20.01953125,-44.921875
4,1734116495024.25,-35.64453125,-30.76171875,-19.53125,-52.24609375
5,1734116495028.1562,-44.921875,-30.2734375,-7.8125,-68.359375
6,1734116495032.0625,-24.4140625,-26.3671875,-14.6484375,-32.71484375
7,1734116495035.9688,-16.11328125,-12.20703125,-29.296875,16.11328125
8,1734116495039.875,-23.92578125,-50.29296875,-26.85546875,3.90625
9,1734116495043.7812,-27.34375,-30.76171875,-41.015625,-27.83203125
10,1734116495047.6875,-25.390625,5.859375,-38.0859375,-41.50390625
11,1734116495051.5938,-19.53125,-27.83203125,-20.99609375,-48.828125
0,1734116495055.5,-26.3671875,-26.3671875,-29.78515625,-21.97265625
1,1734116495059.4062,-32.71484375,-11.71875,-31.25,4.39453125
2,1734116495063.3125,-27.83203125,-20.01953125,-23.4375,-27.34375
3,1734116495067.2188,-30.2734375,-33.69140625,-26.3671875,-32.2265625
4,1734116495071.125,-24.4140625,-39.0625,-28.3203125,-10.25390625
5,1734116495075.0312,-13.18359375,-38.57421875,-36.1328125,-11.23046875
6,1734116495078.9375,-18.5546875,-35.64453125,-26.85546875,-25.87890625
7,1734116495082.8438,-13.18359375,-57.12890625,-15.13671875,-25.87890625
8,1734116495086.75,-26.85546875,-63.96484375,-25.87890625,-8.7890625
9,1734116495090.6562,-58.10546875,-20.01953125,-27.83203125,-38.57421875
10,1734116495094.5625,-48.828125,-9.27734375,-26.3671875,-45.41015625
11,1734116495098.4688,-27.34375,-38.57421875,-29.78515625,-43.9453125
0,1734116495102.375,-17.08984375,-27.34375,-31.73828125,-38.57421875
1,1734116495106.2812,-16.11328125,-9.27734375,-30.2734375,-47.36328125
2,1734116495110.1875,-20.01953125,-23.4375,-33.69140625,-29.78515625
3,1734116495114.0938,-42.96875,-30.76171875,-19.04296875,-27.83203125
4,1734116495118,-47.8515625,-26.85546875,-15.13671875,-48.828125
5,1734116495121.9062,-18.5546875,-20.01953125,-45.8984375,-32.71484375
6,1734116495125.8125,-6.34765625,-32.71484375,-47.8515625,-9.27734375
7,1734116495129.7188,-8.30078125,-53.22265625,-33.203125,15.13671875
8,1734116495133.625,-36.62109375,-19.04296875,-38.57421875,-23.4375
9,1734116495137.5312,-29.296875,3.41796875,-43.9453125,-30.2734375
10,1734116495141.4375,5.37109375,-30.76171875,-32.71484375,28.3203125
11,1734116495145.3438,3.41796875,-40.52734375,-31.73828125,5.859375
0,1734116495149.25,-1.46484375,-13.18359375,-38.57421875,-8.30078125
1,1734116495153.1562,-10.7421875,-17.08984375,-26.85546875,-19.04296875
2,1734116495157.0625,-7.32421875,-28.3203125,-34.66796875,-21.97265625
3,1734116495160.9688,-14.16015625,-6.8359375,-48.33984375,-12.6953125
4,1734116495164.875,-31.73828125,0.9765625,-38.57421875,-29.296875
5,1734116495168.7812,-38.0859375,-22.4609375,-26.85546875,-59.5703125
6,1734116495172.6875,-23.92578125,-52.24609375,-35.64453125,-39.55078125
7,1734116495176.5938,-14.16015625,-58.10546875,-50.78125,0.48828125
8,1734116495180.5,-23.92578125,0.9765625,-49.31640625,-16.11328125
9,1734116495184.4062,-37.59765625,12.20703125,-33.69140625,-32.71484375
10,1734116495188.3125,-29.78515625,-33.69140625,-28.3203125,-16.11328125
11,1734116495192.2188,-31.25,-19.04296875,-26.3671875,-22.4609375
0,1734116495196.125,-43.9453125,7.32421875,-25.390625,-47.36328125
1,1734116495200.0312,-21.484375,-9.765625,-29.78515625,-32.2265625
2,1734116495203.9375,-16.6015625,-15.625,-23.92578125,-28.80859375
3,1734116495207.8438,-21.484375,7.32421875,-24.4140625,-20.5078125
4,1734116495211.75,-19.04296875,11.71875,-29.296875,-37.109375
5,1734116495215.6562,-10.25390625,-10.25390625,-27.83203125,-32.71484375
6,1734116495219.5625,-3.90625,-32.71484375,-26.85546875,7.8125
7,1734116495223.4688,-13.18359375,-0.48828125,-27.83203125,-2.44140625
8,1734116495227.375,-14.16015625,27.34375,-31.25,0
9,1734116495231.2812,-15.625,-4.8828125,-25.87890625,-3.41796875
10,1734116495235.1875,-10.25390625,-9.27734375,-20.5078125,-28.3203125
11,1734116495239.0938,-11.23046875,13.671875,-34.1796875,-42.48046875
0,1734116495243,-17.578125,11.23046875,-35.64453125,-4.39453125
1,1734116495246.9062,-16.11328125,-8.30078125,-31.25,-1.953125
2,1734116495250.8125,-6.8359375,-1.953125,-27.83203125,-29.78515625
3,1734116495254.7188,-12.20703125,5.859375,-25.390625,-14.6484375
4,1734116495258.625,-40.52734375,1.46484375,-26.85546875,-25.87890625
5,1734116495262.5312,-31.25,-26.3671875,-27.34375,-38.0859375
6,1734116495266.4375,-17.578125,-48.33984375,-35.64453125,-20.01953125
7,1734116495270.3438,-53.22265625,4.39453125,-30.76171875,-45.8984375
8,1734116495274.25,-51.7578125,9.27734375,-10.25390625,-58.59375
9,1734116495278.1562,-10.7421875,-30.76171875,-22.4609375,-34.66796875
10,1734116495282.0625,-11.71875,-20.99609375,-38.0859375,-2.44140625
11,1734116495285.9688,-50.29296875,36.1328125,-25.87890625,-35.15625
0,1734116495289.875,-14.6484375,17.08984375,-15.625,-27.83203125
1,1734116495293.7812,15.13671875,-28.80859375,-23.92578125,18.06640625
2,1734116495297.6875,-23.92578125,-11.23046875,-35.15625,-5.37109375
3,1734116495301.5938,-12.20703125,10.7421875,-24.90234375,-15.625
4,1734116495305.5,9.27734375,-19.04296875,-15.13671875,-9.765625
5,1734116495309.4062,-7.32421875,-44.921875,-27.83203125,-9.765625
6,1734116495313.3125,-29.78515625,-33.69140625,-28.80859375,-24.90234375
7,1734116495317.2188,-16.11328125,-23.92578125,-24.4140625,-24.4140625
8,1734116495321.125,16.11328125,-25.87890625,-29.78515625,8.7890625
9,1734116495325.0312,-3.41796875,-64.453125,-38.57421875,10.25390625
10,1734116495328.9375,-57.12890625,-44.43359375,-33.69140625,-31.73828125
11,1734116495332.8438,-93.26171875,-13.18359375,-27.34375,-46.38671875
0,1734116495336.75,-61.03515625,-38.0859375,-19.04296875,-67.87109375
1,1734116495340.6562,-21.484375,-43.45703125,-14.6484375,-89.35546875
2,1734116495344.5625,-14.16015625,-21.484375,-22.94921875,-24.90234375
3,1734116495348.4688,-19.53125,-27.34375,-19.53125,16.11328125
4,1734116495352.375,-50.29296875,-36.62109375,-17.08984375,1.953125
5,1734116495356.2812,-27.83203125,-19.04296875,-9.27734375,-7.8125
6,1734116495360.1875,-24.90234375,-23.4375,-17.578125,-33.69140625
7,1734116495364.0938,-85.44921875,-46.38671875,-39.0625,-67.3828125
8,1734116495368,-106.93359375,-50.29296875,-48.828125,-77.1484375
9,1734116495371.9062,-55.17578125,-81.0546875,-19.04296875,-27.83203125
10,1734116495375.8125,-30.76171875,-41.015625,-24.90234375,-44.43359375
11,1734116495379.7188,-59.5703125,-0.48828125,-41.50390625,-77.1484375
0,1734116495383.625,-30.2734375,-54.6875,-21.484375,-16.6015625
1,1734116495387.5312,-2.9296875,-41.50390625,-20.99609375,-11.71875
2,1734116495391.4375,-42.96875,3.41796875,-23.92578125,-4.39453125
3,1734116495395.3438,-79.1015625,4.39453125,-40.52734375,-5.37109375
4,1734116495399.25,13.18359375,-59.08203125,-64.94140625,-25.87890625
5,1734116495403.1562,9.765625,-62.98828125,-55.17578125,-12.6953125
6,1734116495407.0625,-124.0234375,1.953125,-17.578125,10.25390625
7,1734116495410.9688,-132.32421875,53.7109375,-24.4140625,-21.97265625
8,1734116495414.875,-27.83203125,-25.390625,-31.73828125,-20.99609375
9,1734116495418.7812,27.34375,-45.41015625,-8.30078125,-28.3203125
10,1734116495422.6875,-9.27734375,-3.90625,13.671875,-53.7109375
11,1734116495426.5938,-39.0625,-24.90234375,-10.25390625,-2.44140625
0,1734116495430.5,37.59765625,-57.12890625,-34.66796875,34.1796875
1,1734116495434.4062,9.765625,-25.390625,-33.203125,-3.41796875
2,1734116495438.3125,-26.3671875,-17.08984375,-32.2265625,-28.3203125
3,1734116495442.2188,53.22265625,-18.5546875,-33.203125,-35.15625
4,1734116495446.125,28.80859375,-24.90234375,-30.2734375,-24.90234375
5,1734116495450.0312,-91.796875,-7.8125,-23.4375,-22.94921875
6,1734116495453.9375,-86.42578125,39.0625,-27.34375,-32.71484375
7,1734116495457.8438,15.625,-31.73828125,-14.6484375,19.53125
8,1734116495461.75,52.734375,-82.03125,-1.46484375,61.5234375
9,1734116495465.6562,25.87890625,-1.46484375,-10.25390625,16.6015625
10,1734116495469.5625,-10.7421875,0.9765625,-16.6015625,0.9765625
11,1734116495473.4688,-43.9453125,-6.34765625,-37.109375,-4.8828125
0,1734116495477.375,-17.578125,13.671875,-32.71484375,4.8828125
1,1734116495481.2812,-2.44140625,-7.32421875,-5.859375,-5.859375
2,1734116495485.1875,14.16015625,-10.25390625,-15.625,10.7421875
3,1734116495489.0938,-12.20703125,-3.41796875,-32.2265625,20.01953125
4,1734116495493,-35.15625,-10.7421875,-19.04296875,-8.30078125
5,1734116495496.9062,-9.27734375,0,-19.04296875,7.8125
6,1734116495500.8125,-18.5546875,-7.8125,-24.4140625,29.78515625
7,1734116495504.7188,-12.20703125,-37.109375,-25.87890625,-12.6953125
8,1734116495508.625,-41.015625,0.48828125,-28.3203125,-36.1328125
9,1734116495512.5312,-41.015625,26.3671875,-16.6015625,-29.296875
10,1734116495516.4375,-55.17578125,15.13671875,-21.484375,-79.1015625
11,1734116495520.3438,-43.9453125,7.8125,-35.15625,-62.98828125
0,1734116495524.25,17.578125,24.90234375,-41.015625,-10.7421875
1,1734116495528.1562,18.5546875,19.04296875,-31.73828125,-9.27734375
2,1734116495532.0625,1.953125,-18.5546875,0.9765625,-21.97265625
3,1734116495535.9688,-8.30078125,-21.97265625,-14.16015625,-13.18359375
4,1734116495539.875,-25.390625,1.953125,-38.57421875,-24.4140625
5,1734116495543.7812,-45.41015625,4.39453125,-23.92578125,-24.4140625
6,1734116495547.6875,-0.48828125,-35.64453125,-16.11328125,20.01953125
7,1734116495551.5938,62.01171875,-77.1484375,-21.97265625,59.5703125
8,1734116495555.5,6.34765625,-8.30078125,-25.390625,11.71875
9,1734116495559.4062,-11.23046875,17.578125,-23.92578125,-5.37109375
10,1734116495563.3125,-1.953125,-17.578125,-16.6015625,17.578125
11,1734116495567.2188,2.9296875,-4.39453125,-14.6484375,17.08984375
0,1734116495571.125,8.30078125,12.20703125,-25.87890625,19.04296875
1,1734116495575.0312,21.97265625,0,-29.78515625,-0.9765625
2,1734116495578.9375,1.953125,-9.765625,-29.78515625,-40.0390625
3,1734116495582.8438,-40.0390625,1.46484375,-27.34375,-55.6640625
4,1734116495586.75,-29.296875,-6.8359375,-26.3671875,-27.83203125
5,1734116495590.6562,-34.1796875,-26.85546875,-35.64453125,-8.7890625
6,1734116495594.5625,-29.78515625,-50.29296875,-34.66796875,-27.83203125
7,1734116495598.4688,-23.92578125,-34.1796875,-15.13671875,-63.4765625
8,1734116495602.375,-29.78515625,12.20703125,-21.484375,-56.640625
9,1734116495606.2812,0,-0.48828125,-41.015625,-12.6953125
10,1734116495610.1875,10.7421875,-32.71484375,-34.1796875,1.46484375
11,1734116495614.0938,-1.46484375,0.48828125,-28.80859375,-7.32421875
0,1734116495618,-29.78515625,5.37109375,-26.85546875,-17.08984375
1,1734116495621.9062,-56.15234375,-10.25390625,-33.69140625,-30.76171875
2,1734116495625.8125,-10.25390625,-17.578125,-32.71484375,-53.22265625
3,1734116495629.7188,-16.11328125,1.46484375,-31.25,-39.0625
4,1734116495633.625,-41.50390625,17.578125,-37.59765625,-20.01953125
5,1734116495637.5312,-12.6953125,0.48828125,-23.92578125,-31.73828125
6,1734116495641.4375,-20.5078125,-5.859375,-14.6484375,-27.83203125
7,1734116495645.3438,-47.8515625,-32.2265625,-22.94921875,-29.78515625
8,1734116495649.25,-36.62109375,-38.57421875,-17.578125,-49.8046875
9,1734116495653.1562,-4.8828125,-63.4765625,-11.23046875,-11.23046875
10,1734116495657.0625,-14.6484375,-78.61328125,-23.4375,-3.90625
11,1734116495660.9688,-37.109375,6.34765625,-38.0859375,-13.671875
0,1734116495664.875,-50.29296875,23.4375,-39.0625,-17.578125
1,1734116495668.7812,16.11328125,-18.06640625,-47.36328125,3.41796875
2,1734116495672.6875,43.45703125,-9.27734375,-43.9453125,-4.39453125
3,1734116495676.5938,1.46484375,5.37109375,-44.921875,-32.2265625
4,1734116495680.5,-21.97265625,-9.765625,-43.45703125,-28.3203125
5,1734116495684.4062,-24.90234375,-56.15234375,-27.83203125,-15.625
6,1734116495688.3125,-46.38671875,-31.73828125,-24.4140625,-19.53125
7,1734116495692.2188,-34.1796875,-2.44140625,-31.73828125,-27.83203125
8,1734116495696.125,-31.25,-20.5078125,-33.203125,-24.4140625
9,1734116495700.0312,-48.828125,-16.11328125,-27.83203125,-53.7109375
10,1734116495703.9375,-51.26953125,8.7890625,-35.64453125,-65.91796875
11,1734116495707.8438,-28.3203125,-19.04296875,-26.3671875,-12.20703125
0,1734116495711.75,-2.44140625,-42.48046875,-8.7890625,0.48828125
1,1734116495715.6562,-104.98046875,79.1015625,-38.57421875,-47.36328125
2,1734116495719.5625,-125,67.87109375,-3.41796875,-66.40625
3,1734116495723.4688,18.06640625,-62.01171875,7.8125,-21.484375
4,1734116495727.375,70.3125,-59.08203125,-33.69140625,22.94921875
5,1734116495731.2812,1.46484375,-1.953125,-35.15625,-15.13671875
6,1734116495735.1875,-95.703125,14.16015625,-47.36328125,-25.390625
7,1734116495739.0938,-159.66796875,11.71875,-48.33984375,-63.4765625
8,1734116495743,-10.7421875,-59.5703125,-4.8828125,-45.41015625
9,1734116495746.9062,78.125,-90.33203125,-9.765625,0.48828125
10,1734116495750.8125,-8.7890625,28.3203125,-60.05859375,29.78515625
11,1734116495754.7188,28.80859375,18.06640625,-16.6015625,62.98828125
0,1734116495758.625,0,-31.73828125,-6.8359375,11.71875
1,1734116495762.5312,-50.78125,-20.99609375,-20.99609375,-11.23046875
2,1734116495766.4375,39.55078125,-10.25390625,-18.5546875,33.69140625
3,1734116495770.3438,37.109375,-14.6484375,-41.50390625,-39.55078125
4,1734116495774.25,54.19921875,-58.59375,-65.91796875,-20.5078125
5,1734116495778.1562,27.83203125,-33.69140625,-17.578125,36.62109375
6,1734116495782.0625,-11.71875,-13.18359375,-18.06640625,-20.01953125
7,1734116495785.9688,-48.828125,-51.7578125,-26.85546875,-56.15234375
8,1734116495789.875,-38.57421875,-76.171875,-34.66796875,-31.73828125
9,1734116495793.7812,-8.30078125,-42.48046875,-44.43359375,-31.25
10,1734116495797.6875,-22.94921875,-38.57421875,-23.4375,-11.71875
11,1734116495801.5938,-23.4375,-56.640625,-39.55078125,-1.46484375
0,1734116495805.5,-20.5078125,-42.96875,-12.6953125,-20.01953125
1,1734116495809.4062,-10.25390625,-10.25390625,-21.484375,-26.85546875
2,1734116495813.3125,18.06640625,-3.41796875,-63.96484375,48.33984375
3,1734116495817.2188,25.87890625,-19.53125,-39.55078125,73.2421875
4,1734116495821.125,-27.34375,-22.4609375,-29.296875,-16.6015625
5,1734116495825.0312,-21.97265625,-14.16015625,-35.64453125,-10.25390625
6,1734116495828.9375,16.6015625,-13.18359375,-37.59765625,29.296875
7,1734116495832.8438,-22.4609375,-41.9921875,-31.73828125,5.859375
8,1734116495836.75,-5.37109375,-82.03125,-33.69140625,3.41796875
9,1734116495840.6562,-4.8828125,-28.3203125,-36.62109375,-18.06640625
10,1734116495844.5625,-24.90234375,13.18359375,-38.57421875,-0.48828125
11,1734116495848.4688,-35.64453125,0.9765625,-40.52734375,-8.30078125
0,1734116495852.375,-41.9921875,3.41796875,-23.92578125,-49.8046875
1,1734116495856.2812,-22.4609375,14.16015625,-32.2265625,-27.83203125
2,1734116495860.1875,-10.7421875,0.48828125,-46.38671875,-4.39453125
3,1734116495864.0938,3.41796875,-29.296875,-33.69140625,-8.7890625
4,1734116495868,-13.18359375,-4.8828125,-41.015625,-19.04296875
5,1734116495871.9062,-23.4375,-6.8359375,-37.109375,-11.71875
6,1734116495875.8125,-3.90625,-7.32421875,-34.66796875,-33.69140625
7,1734116495879.7188,-6.34765625,-32.71484375,-39.0625,-22.94921875
8,1734116495883.625,-6.34765625,-32.71484375,-26.3671875,-21.484375
9,1734116495887.5312,21.484375,21.484375,-23.4375,6.8359375
10,1734116495891.4375,16.6015625,8.30078125,-24.4140625,32.71484375
11,1734116495895.3438,25.87890625,-5.859375,-34.66796875,-0.48828125
0,1734116495899.25,-11.23046875,16.6015625,-29.78515625,-24.90234375
1,1734116495903.1562,-31.25,23.92578125,-33.69140625,-23.92578125
2,1734116495907.0625,13.18359375,-9.27734375,-31.73828125,4.39453125
3,1734116495910.9688,13.671875,-4.8828125,-20.99609375,-11.71875
4,1734116495914.875,-19.53125,11.23046875,-19.53125,-30.2734375
5,1734116495918.7812,4.39453125,8.30078125,-23.92578125,-19.53125
6,1734116495922.6875,-5.859375,-36.1328125,-13.18359375,-17.578125
7,1734116495926.5938,-17.08984375,-59.5703125,-21.97265625,-10.25390625
8,1734116495930.5,-15.625,5.37109375,-59.5703125,7.8125
9,1734116495934.4062,-35.15625,10.7421875,-46.875,6.34765625
10,1734116495938.3125,-14.6484375,-33.69140625,-37.59765625,-20.01953125
11,1734116495942.2188,-16.11328125,-26.85546875,-26.85546875,-15.13671875
0,1734116495946.125,-27.83203125,23.92578125,-31.25,-36.1328125
1,1734116495950.0312,-23.4375,8.30078125,-21.484375,-58.10546875
2,1734116495953.9375,18.06640625,-31.73828125,-23.4375,-11.71875
3,1734116495957.8438,33.203125,-20.01953125,-42.48046875,26.3671875
4,1734116495961.75,-0.9765625,-5.859375,-31.25,12.20703125
5,1734116495965.6562,7.32421875,-22.94921875,-21.484375,-3.90625
6,1734116495969.5625,6.8359375,-59.5703125,-5.37109375,-13.18359375
7,1734116495973.4688,-20.01953125,-45.8984375,-5.859375,-21.484375
8,1734116495977.375,-20.5078125,-1.46484375,-42.96875,-4.8828125
9,1734116495981.2812,-15.625,1.953125,-51.26953125,-11.71875
10,1734116495985.1875,-11.71875,-30.2734375,-17.08984375,-36.62109375
11,1734116495989.0938,-27.34375,-24.4140625,-17.578125,-38.57421875
0,1734116495993,-18.5546875,1.46484375,-42.96875,-24.4140625
1,1734116495996.9062,-12.6953125,-25.390625,-35.15625,-22.94921875
2,1734116496000.8125,-18.5546875,-45.41015625,-32.2265625,-7.8125
3,1734116496004.7188,-21.484375,1.953125,-42.96875,-28.3203125
4,1734116496008.625,-46.38671875,0,-25.87890625,-55.6640625
5,1734116496012.5312,-18.5546875,-63.4765625,-20.5078125,-3.90625
6,1734116496016.4375,12.6953125,-52.24609375,-43.45703125,13.18359375
7,1734116496020.3438,-1.46484375,-36.1328125,-18.06640625,-45.41015625
8,1734116496024.25,-7.8125,-15.13671875,-25.87890625,-49.8046875
9,1734116496028.1562,-8.7890625,-29.296875,-50.78125,-17.578125
10,1734116496032.0625,-19.53125,-54.19921875,-41.015625,-36.1328125
11,1734116496035.9688,-21.484375,-6.8359375,-33.203125,-26.3671875
0,1734116496039.875,-29.78515625,10.25390625,-28.80859375,-21.484375
1,1734116496043.7812,-29.296875,-21.484375,-22.94921875,-75.68359375
2,1734116496047.6875,-16.11328125,-38.57421875,-12.20703125,-39.55078125
3,1734116496051.5938,-23.4375,-1.953125,-24.4140625,11.23046875
4,1734116496055.5,-10.25390625,-6.8359375,-38.0859375,4.39453125
5,1734116496059.4062,-15.625,-42.96875,-31.25,-11.23046875
6,1734116496063.3125,-9.27734375,-28.3203125,-33.203125,-4.39453125
7,1734116496067.2188,10.25390625,4.39453125,-34.1796875,-11.23046875
8,1734116496071.125,0,-9.765625,-32.2265625,-9.27734375
9,1734116496075.0312,-26.85546875,-15.13671875,-27.34375,-7.32421875
10,1734116496078.9375,-30.76171875,9.27734375,-20.01953125,-37.59765625
11,1734116496082.8438,-14.6484375,20.01953125,-34.66796875,-34.66796875
0,1734116496086.75,-61.5234375,15.13671875,-43.45703125,-24.4140625
1,1734116496090.6562,-62.98828125,-19.04296875,-35.15625,-22.4609375
2,1734116496094.5625,-20.5078125,-9.765625,-40.0390625,-21.97265625
3,1734116496098.4688,-31.25,-6.8359375,-36.1328125,-61.03515625
4,1734116496102.375,-37.59765625,-39.0625,-44.921875,-33.203125
5,1734116496106.2812,-20.01953125,-41.9921875,-38.0859375,3.90625
6,1734116496110.1875,-12.20703125,-36.1328125,-23.4375,-22.4609375
7,1734116496114.0938,7.32421875,-3.41796875,-40.0390625,-11.71875
8,1734116496118,-7.8125,-19.04296875,-34.1796875,6.8359375
9,1734116496121.9062,-7.32421875,-60.546875,-29.296875,11.71875
10,1734116496125.8125,12.20703125,-10.7421875,-25.87890625,-28.3203125
11,1734116496129.7188,-10.25390625,3.90625,-10.7421875,-66.89453125
0,1734116496133.625,-37.59765625,4.39453125,-25.87890625,-38.0859375
1,1734116496137.5312,-37.59765625,15.13671875,-30.2734375,-20.99609375
2,1734116496141.4375,-10.7421875,0.9765625,-22.94921875,-22.94921875
3,1734116496145.3438,0,-11.71875,-21.97265625,8.7890625
4,1734116496149.25,-20.99609375,-5.37109375,-30.76171875,-11.23046875
5,1734116496153.1562,-43.45703125,-0.9765625,-23.4375,-23.92578125
6,1734116496157.0625,-28.3203125,-19.04296875,-19.04296875,-7.8125
7,1734116496160.9688,-85.44921875,16.6015625,-43.45703125,-53.22265625
8,1734116496164.875,-89.35546875,-16.11328125,-45.41015625,-23.92578125
9,1734116496168.7812,19.04296875,-59.08203125,-29.296875,27.83203125
10,1734116496172.6875,-14.6484375,30.2734375,-33.69140625,-28.80859375
11,1734116496176.5938,-34.66796875,21.484375,-37.109375,-34.66796875
0,1734116496180.5,-11.23046875,10.25390625,-32.2265625,-18.5546875
1,1734116496184.4062,-5.859375,15.13671875,-33.69140625,-25.87890625
2,1734116496188.3125,18.06640625,-32.71484375,-25.87890625,-12.20703125
3,1734116496192.2188,5.37109375,-32.71484375,-25.87890625,-12.20703125
4,1734116496196.125,-86.42578125,-10.25390625,-34.1796875,-46.38671875
5,1734116496200.0312,-83.0078125,-23.92578125,-42.96875,-54.19921875
6,1734116496203.9375,-10.7421875,-44.43359375,-28.3203125,-35.64453125
7,1734116496207.8438,12.20703125,-77.1484375,-17.578125,-6.34765625
8,1734116496211.75,-30.2734375,-80.56640625,-38.0859375,-5.859375
9,1734116496215.6562,-71.2890625,-11.23046875,-41.50390625,-34.66796875
10,1734116496219.5625,-36.62109375,3.90625,-37.59765625,-21.97265625
11,1734116496223.4688,-1.46484375,-33.69140625,-47.36328125,-8.30078125
0,1734116496227.375,-3.90625,-23.4375,-41.50390625,-25.390625
1,1734116496231.2812,-24.4140625,17.578125,-32.71484375,-28.80859375
2,1734116496235.1875,-12.20703125,3.41796875,-29.296875,-14.6484375
3,1734116496239.0938,-20.99609375,-7.8125,-25.87890625,-19.53125
4,1734116496243,-24.4140625,5.37109375,-32.71484375,-25.87890625
5,1734116496246.9062,7.8125,-41.50390625,-29.78515625,-18.5546875
6,1734116496250.8125,-40.52734375,-15.625,-36.1328125,-48.828125
7,1734116496254.7188,-36.62109375,-14.16015625,-32.71484375,-48.828125
8,1734116496258.625,-18.06640625,-20.01953125,-18.06640625,-18.06640625
9,1734116496262.5312,-22.4609375,18.06640625,-27.83203125,-33.69140625
10,1734116496266.4375,0.9765625,1.46484375,-29.78515625,-18.5546875
11,1734116496270.3438,17.08984375,-20.99609375,-24.4140625,10.7421875
0,1734116496274.25,-3.90625,6.34765625,-35.64453125,-7.8125
1,1734116496278.1562,-9.765625,20.5078125,-30.76171875,-22.4609375
2,1734116496282.0625,0,-26.3671875,-24.90234375,-19.04296875
3,1734116496285.9688,-18.5546875,-43.45703125,-26.3671875,-10.25390625
4,1734116496289.875,-6.34765625,-7.32421875,-29.78515625,-14.6484375
5,1734116496293.7812,-17.578125,-16.11328125,-33.69140625,-4.8828125
6,1734116496297.6875,-36.62109375,-49.31640625,-15.625,-0.48828125
7,1734116496301.5938,22.4609375,-60.05859375,-18.5546875,18.06640625
8,1734116496305.5,4.8828125,1.953125,-41.50390625,16.6015625
9,1734116496309.4062,-29.78515625,20.01953125,-41.50390625,0.9765625
10,1734116496313.3125,2.44140625,-45.41015625,-33.203125,5.859375
11,1734116496317.2188,-30.76171875,-32.71484375,-27.83203125,-62.98828125
0,1734116496321.125,-28.80859375,-4.39453125,-26.3671875,-51.7578125
1,1734116496325.0312,18.5546875,-35.64453125,-26.85546875,36.1328125
2,1734116496328.9375,3.90625,-31.73828125,-24.4140625,6.8359375
3,1734116496332.8438,-2.44140625,-11.23046875,-31.73828125,-9.765625
4,1734116496336.75,-23.4375,-16.11328125,-23.4375,-12.6953125
5,1734116496340.6562,0.9765625,-45.8984375,-16.11328125,-17.578125
6,1734116496344.5625,30.2734375,-62.5,-32.71484375,-6.8359375
7,1734116496348.4688,-4.8828125,-35.64453125,-39.0625,-14.16015625
8,1734116496352.375,-8.30078125,-9.765625,-31.25,-25.87890625
9,1734116496356.2812,11.23046875,-27.83203125,-27.83203125,-10.7421875
10,1734116496360.1875,-0.9765625,-35.15625,-17.08984375,-5.859375
11,1734116496364.0938,-0.48828125,-1.953125,-16.11328125,-16.11328125
0,1734116496368,14.16015625,5.37109375,-26.3671875,-10.7421875
1,1734116496371.9062,-2.9296875,-25.390625,-17.578125,18.06640625
2,1734116496375.8125,-29.78515625,-26.3671875,-14.16015625,7.8125
3,1734116496379.7188,-12.6953125,-15.13671875,-19.04296875,-11.71875
4,1734116496383.625,8.30078125,-27.34375,-20.99609375,9.765625
5,1734116496387.5312,-5.37109375,-49.8046875,-16.11328125,-19.04296875
6,1734116496391.4375,-18.5546875,-64.94140625,-20.99609375,-33.203125
7,1734116496395.3438,-16.11328125,-39.55078125,-24.90234375,-18.06640625
8,1734116496399.25,-22.4609375,-13.671875,-27.34375,-13.671875
9,1734116496403.1562,-17.578125,-29.296875,-27.83203125,5.37109375
10,1734116496407.0625,-39.0625,-41.9921875,-15.625,-21.97265625
11,1734116496410.9688,-82.51953125,22.4609375,-21.97265625,-37.109375
0,1734116496414.875,-67.87109375,10.7421875,-9.27734375,-39.55078125
1,1734116496418.7812,-24.4140625,-25.390625,-9.27734375,-17.08984375
2,1734116496422.6875,-1.953125,-24.90234375,-34.1796875,1.46484375
3,1734116496426.5938,8.30078125,-11.23046875,-34.66796875,0.9765625
4,1734116496430.5,-3.90625,-7.8125,-25.390625,-10.7421875
5,1734116496434.4062,-31.73828125,-37.109375,-13.18359375,-49.31640625
6,1734116496438.3125,-92.28515625,-34.66796875,12.6953125,-100.09765625
7,1734116496442.2188,-57.12890625,-37.109375,1.953125,-68.84765625
8,1734116496446.125,53.22265625,-37.109375,-46.38671875,44.43359375
9,1734116496450.0312,15.13671875,-67.3828125,-31.25,23.92578125
10,1734116496453.9375,-29.296875,-50.29296875,-35.15625,0.48828125
11,1734116496457.8438,14.6484375,-4.8828125,-41.9921875,46.38671875
0,1734116496461.75,36.1328125,-34.66796875,-31.73828125,23.4375
1,1734116496465.6562,11.23046875,-57.12890625,-20.5078125,4.39453125
2,1734116496469.5625,-13.671875,-19.53125,-37.59765625,21.97265625
3,1734116496473.4688,16.6015625,-26.85546875,-37.59765625,32.71484375
4,1734116496477.375,21.484375,-58.10546875,-19.04296875,-19.04296875
5,1734116496481.2812,-27.83203125,-43.9453125,-43.45703125,-53.7109375
6,1734116496485.1875,-67.87109375,-62.5,4.8828125,-68.359375
7,1734116496489.0938,-39.55078125,-47.8515625,-11.23046875,-31.25
8,1734116496493,20.01953125,-27.34375,-70.80078125,36.62109375
9,1734116496496.9062,20.99609375,-50.29296875,-42.96875,16.11328125
10,1734116496500.8125,-8.30078125,-13.671875,-29.78515625,-6.34765625
11,1734116496504.7188,-24.4140625,3.41796875,-30.2734375,-50.78125
0,1734116496508.625,-41.50390625,-55.6640625,-22.94921875,-64.453125
1,1734116496512.5312,-8.30078125,-62.5,-31.73828125,-1.46484375
2,1734116496516.4375,9.27734375,-7.32421875,-32.71484375,6.34765625
3,1734116496520.3438,-2.9296875,-7.32421875,-45.8984375,-12.6953125
4,1734116496524.25,-4.8828125,-23.92578125,-14.6484375,-16.11328125
5,1734116496528.1562,-7.8125,-31.73828125,-3.90625,1.46484375
6,1734116496532.0625,10.7421875,-6.8359375,-43.45703125,10.25390625
7,1734116496535.9688,0,-5.37109375,-37.59765625,-17.08984375
8,1734116496539.875,-25.390625,-31.25,-35.15625,-3.90625
9,1734116496543.7812,-27.34375,-3.90625,-35.15625,3.90625
10,1734116496547.6875,-25.87890625,12.20703125,-33.69140625,-9.27734375
11,1734116496551.5938,21.484375,-25.390625,-17.08984375,12.20703125
0,1734116496555.5,9.27734375,-10.25390625,-12.6953125,-14.16015625
1,1734116496559.4062,-15.13671875,25.390625,-38.0859375,-33.69140625
2,1734116496563.3125,-1.953125,14.6484375,-38.0859375,-3.90625
3,1734116496567.2188,-21.484375,-15.13671875,-23.92578125,12.20703125
4,1734116496571.125,-16.6015625,-7.32421875,-22.94921875,5.859375
5,1734116496575.0312,-38.0859375,18.5546875,-29.78515625,-58.10546875
6,1734116496578.9375,-33.203125,-3.41796875,-24.90234375,-65.91796875
7,1734116496582.8438,8.7890625,-38.57421875,-29.296875,5.859375
8,1734116496586.75,-18.06640625,-48.828125,-20.5078125,0.48828125
9,1734116496590.6562,-29.78515625,9.27734375,-18.06640625,-30.76171875
10,1734116496594.5625,-12.6953125,20.5078125,-21.97265625,-35.64453125
11,1734116496598.4688,-39.0625,21.484375,-28.80859375,-47.8515625
0,1734116496602.375,-66.89453125,35.15625,-25.87890625,-65.4296875
1,1734116496606.2812,-25.87890625,27.34375,-22.94921875,-16.6015625
2,1734116496610.1875,1.953125,10.25390625,-33.203125,33.203125
3,1734116496614.0938,14.6484375,-22.94921875,-23.92578125,22.94921875
4,1734116496618,8.7890625,8.30078125,-27.83203125,11.23046875
5,1734116496621.9062,-9.27734375,6.8359375,-22.4609375,-16.6015625
6,1734116496625.8125,-10.25390625,-12.6953125,-31.25,-20.01953125
7,1734116496629.7188,4.8828125,-32.2265625,-35.64453125,22.4609375
8,1734116496633.625,-8.30078125,-17.08984375,-33.203125,-4.39453125
9,1734116496637.5312,-29.78515625,7.32421875,-34.1796875,-36.1328125
10,1734116496641.4375,-16.6015625,-9.765625,-32.2265625,-5.37109375
11,1734116496645.3438,-8.7890625,-15.625,-26.3671875,-3.90625
0,1734116496649.25,-20.01953125,-4.39453125,-25.390625,-20.5078125
1,1734116496653.1562,-29.296875,-6.34765625,-30.76171875,-16.11328125
2,1734116496657.0625,-29.296875,-21.484375,-27.83203125,-25.390625
3,1734116496660.9688,-23.4375,-15.13671875,-32.71484375,-28.80859375
4,1734116496664.875,-22.94921875,-1.953125,-36.62109375,-10.25390625
5,1734116496668.7812,-11.23046875,-8.7890625,-41.9921875,-13.18359375
6,1734116496672.6875,3.90625,-26.3671875,-41.9921875,-8.7890625
7,1734116496676.5938,3.41796875,-38.0859375,-30.2734375,-15.13671875
8,1734116496680.5,-16.11328125,-0.9765625,-26.85546875,-20.01953125
9,1734116496684.4062,-6.8359375,25.390625,-33.69140625,-18.5546875
10,1734116496688.3125,-1.46484375,-20.5078125,-38.57421875,-14.16015625
11,1734116496692.2188,-31.73828125,-25.87890625,-39.55078125,-31.25
0,1734116496696.125,-52.734375,16.11328125,-40.52734375,-48.33984375
1,1734116496700.0312,-36.1328125,1.953125,-35.64453125,-34.66796875
2,1734116496703.9375,-31.73828125,-9.765625,-37.59765625,-37.59765625
3,1734116496707.8438,-41.9921875,4.8828125,-32.2265625,-46.38671875
4,1734116496711.75,-27.83203125,6.8359375,-20.99609375,-31.73828125
5,1734116496715.6562,-3.41796875,-6.8359375,-32.2265625,-24.90234375
6,1734116496719.5625,-1.953125,-35.15625,-33.69140625,-0.9765625
7,1734116496723.4688,-9.765625,-28.80859375,-17.578125,-9.27734375
8,1734116496727.375,-24.4140625,19.04296875,-22.94921875,-42.96875
9,1734116496731.2812,-14.6484375,7.32421875,-23.92578125,-17.08984375
10,1734116496735.1875,0.9765625,-21.97265625,-22.94921875,-8.30078125
11,1734116496739.0938,-14.16015625,1.953125,-30.76171875,-53.7109375
0,1734116496743,-17.08984375,5.859375,-19.53125,-33.203125
1,1734116496746.9062,-21.97265625,-20.5078125,-12.20703125,-37.109375
2,1734116496750.8125,-33.69140625,-17.578125,-25.87890625,-27.83203125
3,1734116496754.7188,-3.90625,-6.34765625,-30.2734375,21.97265625
4,1734116496758.625,5.859375,-18.06640625,-18.5546875,9.27734375
5,1734116496762.5312,-31.73828125,-34.66796875,-18.06640625,-20.01953125
6,1734116496766.4375,-26.85546875,-49.31640625,-29.296875,-14.6484375
7,1734116496770.3438,-36.1328125,-45.8984375,-1.46484375,-72.75390625
8,1734116496774.25,-43.45703125,-16.6015625,-2.9296875,-89.84375
9,1734116496778.1562,10.25390625,-38.0859375,-42.48046875,17.578125
10,1734116496782.0625,12.20703125,-66.40625,-38.57421875,39.55078125
11,1734116496785.9688,-17.08984375,-27.83203125,-5.859375,-21.484375
0,1734116496789.875,-8.30078125,-22.94921875,-12.20703125,-32.2265625
1,1734116496793.7812,4.8828125,-30.2734375,-44.43359375,-10.7421875
2,1734116496797.6875,-36.1328125,-13.671875,-37.109375,-34.1796875
3,1734116496801.5938,-50.78125,1.46484375,-51.26953125,-29.78515625
4,1734116496805.5,-14.16015625,-27.83203125,-30.2734375,-20.5078125
5,1734116496809.4062,-1.46484375,-58.10546875,-6.34765625,-17.578125
6,1734116496813.3125,-46.875,-45.8984375,-31.73828125,-24.90234375
7,1734116496817.2188,-60.05859375,-34.66796875,-36.62109375,-30.2734375
8,1734116496821.125,-17.578125,-35.15625,-36.62109375,-7.32421875
9,1734116496825.0312,-9.27734375,-36.62109375,-50.78125,-6.34765625
10,1734116496828.9375,-13.671875,-20.99609375,-43.45703125,-27.34375
11,1734116496832.8438,3.41796875,-27.34375,-33.69140625,-14.16015625
0,1734116496836.75,-0.48828125,-48.33984375,-37.109375,-17.08984375
1,1734116496840.6562,-22.94921875,-45.8984375,-33.69140625,-25.390625
2,1734116496844.5625,-43.9453125,-5.859375,-33.69140625,-40.52734375
3,1734116496848.4688,-29.78515625,-15.625,-43.9453125,-21.484375
4,1734116496852.375,-13.18359375,-30.76171875,-46.875,-20.01953125
5,1734116496856.2812,-11.23046875,-30.76171875,-41.9921875,-28.80859375
6,1734116496860.1875,-24.4140625,-26.85546875,-44.43359375,-21.484375
7,1734116496864.0938,-49.31640625,-14.6484375,-40.0390625,-20.5078125
8,1734116496868,-32.71484375,-37.59765625,-35.15625,-10.25390625
9,1734116496871.9062,-22.94921875,-57.12890625,-36.1328125,-12.6953125
10,1734116496875.8125,-39.55078125,6.8359375,-33.203125,-43.9453125
11,1734116496879.7188,-25.390625,13.671875,-36.62109375,-33.69140625
0,1734116496883.625,-18.06640625,-13.18359375,-40.0390625,-18.06640625
1,1734116496887.5312,12.6953125,-4.8828125,-41.50390625,1.953125
2,1734116496891.4375,3.90625,-13.18359375,-38.0859375,0.48828125
3,1734116496895.3438,-20.01953125,-21.484375,-32.2265625,-29.296875
4,1734116496899.25,-19.53125,-27.34375,-37.59765625,-5.37109375
5,1734116496903.1562,-25.87890625,-21.484375,-35.15625,-4.39453125
6,1734116496907.0625,-26.3671875,-5.37109375,-26.3671875,-40.52734375
7,1734116496910.9688,-34.66796875,-15.625,-28.3203125,-37.59765625
8,1734116496914.875,-25.390625,-41.9921875,-36.1328125,10.7421875
9,1734116496918.7812,-19.04296875,-9.27734375,-32.2265625,0
10,1734116496922.6875,-11.71875,11.71875,-24.90234375,-25.390625
11,1734116496926.5938,-14.16015625,-28.80859375,-31.25,-11.71875
0,1734116496930.5,-14.16015625,-23.92578125,-38.0859375,-13.18359375
1,1734116496934.4062,-6.8359375,-5.37109375,-36.1328125,-27.34375
2,1734116496938.3125,-37.109375,5.37109375,-38.0859375,-39.55078125
3,1734116496942.2188,-38.57421875,-7.32421875,-33.203125,-25.87890625
4,1734116496946.125,-0.48828125,-44.921875,-23.92578125,-15.625
5,1734116496950.0312,0.48828125,-43.9453125,-22.4609375,-10.25390625
6,1734116496953.9375,-1.46484375,-25.390625,-25.87890625,10.7421875
7,1734116496957.8438,7.8125,-49.31640625,-19.53125,24.4140625
8,1734116496961.75,4.39453125,-87.40234375,-21.484375,21.484375
9,1734116496965.6562,-11.23046875,-33.203125,-27.34375,0.9765625
10,1734116496969.5625,-13.18359375,14.6484375,-21.484375,-15.625
11,1734116496973.4688,-8.7890625,-15.13671875,-20.01953125,-9.765625
0,1734116496977.375,-11.71875,-15.625,-20.99609375,-12.20703125
1,1734116496981.2812,-20.01953125,3.41796875,-22.4609375,-24.4140625
2,1734116496985.1875,-11.23046875,-1.46484375,-20.99609375,-13.18359375
3,1734116496989.0938,-1.953125,-8.7890625,-19.04296875,-5.859375
4,1734116496993,-6.34765625,-2.9296875,-25.87890625,-10.25390625
5,1734116496996.9062,-7.32421875,-12.6953125,-27.34375,-7.8125
6,1734116497000.8125,-14.6484375,-20.5078125,-22.94921875,-8.7890625
7,1734116497004.7188,-20.99609375,-54.19921875,-22.94921875,0
8,1734116497008.625,-18.5546875,-35.15625,-23.92578125,-10.7421875
9,1734116497012.5312,-31.73828125,20.99609375,-23.4375,-32.2265625
10,1734116497016.4375,-23.4375,-1.46484375,-26.85546875,-26.85546875
11,1734116497020.3438,-13.18359375,-5.37109375,-30.2734375,-13.671875
0,1734116497024.25,-22.4609375,15.13671875,-31.73828125,-12.20703125
1,1734116497028.1562,-22.4609375,10.7421875,-29.296875,0.9765625
2,1734116497032.0625,-16.11328125,-9.27734375,-24.4140625,6.34765625
3,1734116497035.9688,-20.5078125,-12.6953125,-22.94921875,9.27734375
4,1734116497039.875,-9.27734375,-9.27734375,-20.5078125,3.90625
5,1734116497043.7812,-6.8359375,-21.484375,-19.04296875,4.39453125
6,1734116497047.6875,-25.390625,-52.734375,-23.92578125,9.765625
7,1734116497051.5938,-22.4609375,-65.91796875,-35.15625,5.859375
8,1734116497055.5,-21.484375,-13.671875,-36.1328125,14.6484375
9,1734116497059.4062,-20.99609375,6.34765625,-26.3671875,-20.99609375
10,1734116497063.3125,-6.8359375,-37.59765625,-32.2265625,-23.4375
11,1734116497067.2188,-9.765625,-41.015625,-41.50390625,-28.3203125
0,1734116497071.125,-31.73828125,8.7890625,-41.50390625,-39.0625
1,1734116497075.0312,-35.64453125,3.90625,-29.78515625,-43.9453125
2,1734116497078.9375,-16.6015625,-17.08984375,-25.87890625,-50.29296875
3,1734116497082.8438,-9.27734375,-12.6953125,-39.0625,-21.97265625
4,1734116497086.75,-18.5546875,-2.9296875,-39.0625,-37.59765625
5,1734116497090.6562,-22.4609375,-25.390625,-33.203125,-57.6171875
6,1734116497094.5625,-7.8125,-56.640625,-34.66796875,-3.90625
7,1734116497098.4688,-1.46484375,-29.78515625,-31.25,1.953125
8,1734116497102.375,-14.16015625,-7.32421875,-30.2734375,-17.578125
9,1734116497106.2812,-10.25390625,-38.0859375,-17.08984375,0
10,1734116497110.1875,4.8828125,-44.43359375,-45.41015625,22.4609375
11,1734116497114.0938,-10.7421875,-31.73828125,-66.40625,-6.34765625
0,1734116497118,-40.52734375,-45.8984375,-18.5546875,-52.24609375
1,1734116497121.9062,-22.94921875,-65.91796875,-6.8359375,-5.859375
2,1734116497125.8125,-5.859375,-71.2890625,-16.6015625,17.578125
3,1734116497129.7188,-28.80859375,-39.0625,-21.484375,-10.25390625
4,1734116497133.625,-18.5546875,-41.50390625,-20.5078125,-12.20703125
5,1734116497137.5312,5.37109375,-88.37890625,-17.08984375,-0.48828125
6,1734116497141.4375,-11.71875,-97.16796875,-20.01953125,-12.20703125
7,1734116497145.3438,-21.97265625,-64.94140625,-14.6484375,-28.80859375
8,1734116497149.25,-29.296875,-43.9453125,-12.20703125,-38.57421875
9,1734116497153.1562,-33.203125,-69.3359375,-10.7421875,-34.1796875
10,1734116497157.0625,-36.1328125,-67.87109375,-16.6015625,-60.05859375
11,1734116497160.9688,-39.0625,-22.4609375,-32.71484375,-86.9140625
0,1734116497164.875,-10.7421875,-30.2734375,-25.390625,-28.80859375
1,1734116497168.7812,-17.578125,-50.29296875,-18.06640625,-11.23046875
2,1734116497172.6875,-25.87890625,-43.45703125,-23.4375,-26.85546875
3,1734116497176.5938,1.46484375,-20.99609375,-28.3203125,-20.99609375
4,1734116497180.5,0.48828125,-14.16015625,-29.78515625,-28.80859375
5,1734116497184.4062,-24.4140625,-47.36328125,-27.83203125,-30.76171875
6,1734116497188.3125,-16.11328125,-48.828125,-26.85546875,-15.13671875
7,1734116497192.2188,-5.37109375,-5.859375,-24.4140625,-13.671875
8,1734116497196.125,-15.625,-4.8828125,-24.90234375,-23.4375
9,1734116497200.0312,-32.71484375,-19.04296875,-27.34375,-54.19921875
10,1734116497203.9375,-38.57421875,-6.34765625,-24.90234375,-69.3359375
11,1734116497207.8438,-17.578125,-5.37109375,-29.296875,-29.296875
0,1734116497211.75,-28.80859375,-23.4375,-31.73828125,-38.57421875
1,1734116497215.6562,-33.69140625,-25.87890625,-35.64453125,-49.8046875
2,1734116497219.5625,-32.71484375,-13.18359375,-28.3203125,-54.19921875
3,1734116497223.4688,-39.0625,-12.6953125,-29.78515625,-62.01171875
4,1734116497227.375,-31.25,-30.76171875,-36.1328125,-62.98828125
5,1734116497231.2812,-41.50390625,-32.71484375,-35.15625,-67.87109375
6,1734116497235.1875,-37.109375,-12.20703125,-41.50390625,-27.83203125
7,1734116497239.0938,-19.53125,-25.87890625,-31.73828125,-43.9453125
8,1734116497243,-23.4375,-54.19921875,-28.80859375,-53.22265625
9,1734116497246.9062,-20.01953125,-84.9609375,-37.109375,-23.92578125
10,1734116497250.8125,-32.71484375,-39.55078125,-43.45703125,-35.15625
11,1734116497254.7188,-33.203125,-8.7890625,-45.41015625,-19.04296875
0,1734116497258.625,-35.64453125,-23.4375,-45.8984375,-18.06640625
1,1734116497262.5312,-41.015625,-20.5078125,-50.78125,-62.98828125
2,1734116497266.4375,-30.2734375,-27.83203125,-44.921875,-67.3828125
3,1734116497270.3438,-27.83203125,-30.76171875,-41.9921875,-36.62109375
4,1734116497274.25,-34.66796875,-34.66796875,-44.921875,-36.62109375
5,1734116497278.1562,-8.30078125,-41.9921875,-36.62109375,-24.90234375
6,1734116497282.0625,3.90625,-34.1796875,-40.0390625,-13.18359375
7,1734116497285.9688,-6.8359375,-22.4609375,-46.38671875,-13.18359375
8,1734116497289.875,-2.44140625,-63.96484375,-46.38671875,-7.8125
9,1734116497293.7812,-3.90625,-42.48046875,-48.33984375,-16.11328125
10,1734116497297.6875,-23.4375,17.578125,-39.0625,-49.8046875
11,1734116497301.5938,-17.578125,-6.34765625,-41.9921875,-42.96875
0,1734116497305.5,-16.11328125,-13.671875,-41.015625,-17.578125
1,1734116497309.4062,-21.97265625,1.953125,-37.59765625,-19.53125
2,1734116497313.3125,-24.4140625,-1.46484375,-34.66796875,-31.25
3,1734116497317.2188,-24.4140625,-16.11328125,-36.62109375,-19.04296875
4,1734116497321.125,-12.20703125,-18.06640625,-35.15625,-2.9296875
5,1734116497325.0312,-16.6015625,-6.8359375,-27.83203125,-16.11328125
6,1734116497328.9375,-19.53125,-3.90625,-26.85546875,-28.80859375
7,1734116497332.8438,-17.08984375,-27.83203125,-28.80859375,0.9765625
8,1734116497336.75,-22.4609375,-44.43359375,-28.3203125,5.859375
9,1734116497340.6562,-32.2265625,-1.46484375,-15.625,-31.73828125
10,1734116497344.5625,-38.57421875,12.6953125,-24.90234375,-52.734375
11,1734116497348.4688,-8.30078125,-13.671875,-35.64453125,-31.25
0,1734116497352.375,-15.625,-15.625,0.9765625,-16.11328125
1,1734116497356.2812,-34.1796875,1.953125,-13.18359375,-20.5078125
2,1734116497360.1875,-1.46484375,-4.8828125,-49.8046875,16.6015625
3,1734116497364.0938,9.765625,-20.01953125,-40.52734375,20.5078125
4,1734116497368,-9.765625,-30.2734375,-36.62109375,-11.71875
5,1734116497371.9062,-21.97265625,-37.109375,-42.48046875,-20.99609375
6,1734116497375.8125,-25.390625,-34.1796875,-40.52734375,-6.8359375
7,1734116497379.7188,-21.484375,-57.12890625,-34.1796875,-0.9765625
8,1734116497383.625,-24.4140625,-39.0625,-41.50390625,-23.4375
9,1734116497387.5312,-20.5078125,-12.20703125,-40.52734375,-39.55078125
10,1734116497391.4375,-19.04296875,-33.203125,-38.57421875,-30.2734375
11,1734116497395.3438,-16.6015625,-38.0859375,-37.109375,-20.5078125
0,1734116497399.25,-9.765625,-29.296875,-32.71484375,-13.671875
1,1734116497403.1562,-29.296875,-18.5546875,-32.71484375,-35.64453125
2,1734116497407.0625,-30.76171875,-34.66796875,-31.25,-29.296875
3,1734116497410.9688,-28.3203125,-43.9453125,-27.83203125,-9.27734375
4,1734116497414.875,-40.0390625,-17.08984375,-24.4140625,-31.25
5,1734116497418.7812,-31.73828125,-17.578125,-27.34375,-38.0859375
6,1734116497422.6875,-10.25390625,-42.48046875,-42.96875,-8.30078125
7,1734116497426.5938,-17.578125,-51.7578125,-41.9921875,-7.32421875
8,1734116497430.5,-26.3671875,-2.9296875,-33.69140625,-22.4609375
9,1734116497434.4062,-11.23046875,11.71875,-22.94921875,-8.30078125
10,1734116497438.3125,-12.6953125,-24.4140625,-22.4609375,-3.90625
11,1734116497442.2188,-16.11328125,-9.27734375,-29.296875,-19.53125
0,1734116497446.125,-13.18359375,30.2734375,-31.25,-17.08984375
1,1734116497450.0312,-9.765625,16.11328125,-29.78515625,-4.39453125
2,1734116497453.9375,-9.765625,-8.30078125,-30.2734375,-6.34765625
3,1734116497457.8438,-20.01953125,15.13671875,-29.78515625,-13.18359375
4,1734116497461.75,-22.4609375,26.3671875,-27.83203125,-25.87890625
5,1734116497465.6562,-6.8359375,-2.44140625,-29.78515625,-3.90625
6,1734116497469.5625,-10.25390625,-13.671875,-27.34375,-7.8125
7,1734116497473.4688,-13.18359375,1.953125,-28.3203125,-30.76171875
8,1734116497477.375,-33.203125,23.92578125,-36.1328125,-47.36328125
9,1734116497481.2812,-31.73828125,-3.41796875,-33.69140625,-47.36328125
10,1734116497485.1875,-7.8125,-62.01171875,-24.90234375,-43.9453125
11,1734116497489.0938,-28.80859375,-26.85546875,-31.25,-40.0390625
0,1734116497493,-27.34375,16.6015625,-33.203125,-25.87890625
1,1734116497496.9062,-26.3671875,-12.6953125,-33.69140625,-24.90234375
2,1734116497500.8125,-32.2265625,-16.11328125,-37.59765625,-15.13671875
3,1734116497504.7188,-25.87890625,-1.953125,-32.71484375,-15.625
4,1734116497508.625,-19.53125,-10.25390625,-30.2734375,-13.18359375
5,1734116497512.5312,-10.7421875,-44.921875,-28.80859375,-1.46484375
6,1734116497516.4375,-7.32421875,-59.5703125,-35.15625,-5.37109375
7,1734116497520.3438,-8.30078125,-30.2734375,-34.66796875,-13.671875
8,1734116497524.25,-0.48828125,-10.25390625,-28.3203125,-11.71875
9,1734116497528.1562,8.30078125,-35.64453125,-28.3203125,-4.39453125
10,1734116497532.0625,14.6484375,-52.734375,-16.6015625,12.6953125
11,1734116497535.9688,-3.90625,2.9296875,-22.4609375,-2.9296875
0,1734116497539.875,-5.859375,14.6484375,-43.45703125,-8.7890625
1,1734116497543.7812,0,-8.30078125,-39.55078125,-7.32421875
2,1734116497547.6875,5.37109375,-5.859375,-30.76171875,-7.8125
3,1734116497551.5938,2.9296875,4.39453125,-26.85546875,-8.7890625
4,1734116497555.5,-7.32421875,-8.30078125,-24.4140625,-15.13671875
5,1734116497559.4062,2.44140625,-28.80859375,-30.76171875,-10.25390625
6,1734116497563.3125,-0.9765625,-19.04296875,-35.15625,-15.13671875
7,1734116497567.2188,-7.8125,3.90625,-32.2265625,-28.3203125
8,1734116497571.125,-17.578125,0.48828125,-29.296875,-28.80859375
9,1734116497575.0312,-21.484375,-37.109375,-29.296875,-14.6484375
10,1734116497578.9375,-26.3671875,-20.99609375,-34.66796875,-15.625
11,1734116497582.8438,-40.52734375,10.25390625,-37.109375,-30.2734375
0,1734116497586.75,-44.43359375,-11.23046875,-34.1796875,-18.5546875
1,1734116497590.6562,-48.828125,-15.13671875,-32.71484375,-21.97265625
2,1734116497594.5625,-46.875,2.9296875,-32.71484375,-38.0859375
3,1734116497598.4688,-33.203125,2.44140625,-29.78515625,-26.3671875
4,1734116497602.375,-29.78515625,-16.6015625,-34.66796875,-22.4609375
5,1734116497606.2812,-18.5546875,-28.3203125,-39.55078125,-4.39453125
6,1734116497610.1875,-4.39453125,-25.87890625,-36.62109375,9.27734375
7,1734116497614.0938,-7.8125,-20.5078125,-34.1796875,1.46484375
8,1734116497618,5.859375,-41.9921875,-32.2265625,4.8828125
9,1734116497621.9062,18.06640625,-68.359375,-23.92578125,2.9296875
10,1734116497625.8125,-0.48828125,-20.99609375,-22.94921875,-27.83203125
11,1734116497629.7188,-21.97265625,1.953125,-25.390625,-23.92578125
0,1734116497633.625,-14.16015625,-22.94921875,-25.390625,2.44140625
1,1734116497637.5312,-12.20703125,-19.04296875,-31.25,-14.6484375
2,1734116497641.4375,-26.85546875,0.48828125,-33.69140625,-36.1328125
3,1734116497645.3438,-29.296875,-8.7890625,-28.80859375,-32.71484375
4,1734116497649.25,-28.3203125,-24.4140625,-31.73828125,-27.83203125
5,1734116497653.1562,-26.3671875,-34.1796875,-35.64453125,-36.1328125
6,1734116497657.0625,-24.4140625,-38.57421875,-33.69140625,-44.43359375
7,1734116497660.9688,-32.71484375,-35.64453125,-27.34375,-77.63671875
8,1734116497664.875,-34.66796875,-54.6875,-28.3203125,-59.08203125
9,1734116497668.7812,-37.109375,-28.3203125,-33.69140625,-15.13671875
10,1734116497672.6875,-44.921875,-4.8828125,-20.99609375,-41.9921875
11,1734116497676.5938,-36.1328125,-34.66796875,-20.5078125,-52.24609375
0,1734116497680.5,-11.71875,-41.015625,-36.1328125,-10.25390625
1,1734116497684.4062,-4.39453125,-19.53125,-33.69140625,8.30078125
2,1734116497688.3125,-6.8359375,-3.90625,-25.390625,-5.859375
3,1734116497692.2188,-4.39453125,-31.73828125,-20.5078125,1.953125
4,1734116497696.125,-2.9296875,-42.48046875,-18.06640625,9.27734375
5,1734116497700.0312,-7.8125,-18.06640625,-20.01953125,6.34765625
6,1734116497703.9375,-10.7421875,-24.90234375,-20.01953125,2.44140625
7,1734116497707.8438,0.9765625,-52.24609375,-18.5546875,10.7421875
8,1734116497711.75,8.7890625,-65.4296875,-26.3671875,15.625
9,1734116497715.6562,-11.23046875,-8.30078125,-30.76171875,-10.7421875
10,1734116497719.5625,-20.5078125,10.25390625,-20.99609375,-20.01953125
11,1734116497723.4688,-1.46484375,-11.23046875,-19.04296875,-12.20703125
0,1734116497727.375,6.8359375,-6.8359375,-22.4609375,-15.13671875
1,1734116497731.2812,-9.27734375,-3.90625,-20.5078125,-12.6953125
2,1734116497735.1875,-20.01953125,-24.90234375,-16.6015625,-24.90234375
3,1734116497739.0938,-22.4609375,-36.62109375,-21.97265625,-49.31640625
4,1734116497743,-28.3203125,-20.01953125,-29.78515625,-39.0625
5,1734116497746.9062,-33.203125,-18.5546875,-27.34375,-50.78125
6,1734116497750.8125,-31.25,-26.3671875,-30.2734375,-55.17578125
7,1734116497754.7188,-23.4375,-56.640625,-31.73828125,-16.6015625
8,1734116497758.625,-34.66796875,-33.203125,-29.296875,-4.39453125
9,1734116497762.5312,-47.8515625,7.32421875,-28.3203125,-25.390625
10,1734116497766.4375,-36.62109375,-19.04296875,-35.15625,-23.92578125
11,1734116497770.3438,-29.78515625,-28.80859375,-39.55078125,-17.08984375
0,1734116497774.25,-31.73828125,-12.20703125,-33.69140625,-21.97265625
1,1734116497778.1562,-23.92578125,-12.20703125,-34.66796875,-18.06640625
2,1734116497782.0625,-23.4375,-36.62109375,-31.73828125,-20.01953125
3,1734116497785.9688,-19.53125,-36.1328125,-30.76171875,-36.62109375
4,1734116497789.875,-6.8359375,-17.578125,-30.76171875,-36.1328125
