index,unixTimestamp,TP9,AF7,AF8,TP10
0,1734117334710.25,0,0,0,-0.48828125
1,1734117334714.1562,0,0,-0.48828125,-0.48828125
2,1734117334718.0625,-0.48828125,-0.9765625,0.48828125,1.46484375
3,1734117334721.9688,0,1.46484375,-2.9296875,-3.41796875
4,1734117334725.875,-0.9765625,-7.8125,5.859375,16.11328125
5,1734117334729.7812,-14.6484375,-21.97265625,-13.18359375,44.921875
6,1734117334733.6875,-8.7890625,-17.578125,-44.921875,46.875
7,1734117334737.5938,-5.859375,-12.20703125,-39.55078125,39.55078125
8,1734117334741.5,-19.53125,-22.94921875,-37.59765625,37.109375
9,1734117334745.4062,-13.671875,-27.34375,-30.76171875,45.41015625
10,1734117334749.3125,-3.90625,-11.23046875,-27.83203125,39.55078125
11,1734117334753.2188,-21.484375,-13.671875,-29.296875,29.78515625
0,1734117334757.125,-31.73828125,-15.13671875,-32.71484375,34.1796875
1,1734117334761.0312,-19.04296875,-10.7421875,-30.2734375,29.78515625
2,1734117334764.9375,-20.01953125,-16.6015625,-27.34375,28.3203125
3,1734117334768.8438,-3.90625,-15.625,-30.76171875,33.203125
4,1734117334772.75,-5.859375,-20.01953125,-31.73828125,21.97265625
5,1734117334776.6562,-13.18359375,-28.80859375,-31.73828125,18.5546875
6,1734117334780.5625,-2.9296875,-14.6484375,-37.109375,32.71484375
7,1734117334784.4688,-0.9765625,-7.32421875,-41.015625,28.3203125
8,1734117334788.375,-15.13671875,-13.671875,-37.109375,15.625
9,1734117334792.2812,-27.34375,-17.08984375,-36.62109375,20.01953125
10,1734117334796.1875,-21.484375,-29.296875,-37.109375,20.01953125
11,1734117334800.0938,-21.97265625,-26.85546875,-36.1328125,12.6953125
0,1734117334804,-17.08984375,-11.71875,-35.15625,20.99609375
1,1734117334807.9062,-4.8828125,-10.7421875,-31.25,39.0625
2,1734117334811.8125,-10.7421875,-18.5546875,-30.76171875,44.43359375
3,1734117334815.7188,-9.765625,-23.92578125,-32.2265625,49.31640625
4,1734117334819.625,-4.39453125,-20.5078125,-32.71484375,32.2265625
5,1734117334823.5312,4.39453125,-20.5078125,-33.69140625,40.52734375
6,1734117334827.4375,5.859375,-19.04296875,-30.76171875,62.98828125
7,1734117334831.3438,-6.34765625,-21.484375,-34.1796875,44.921875
8,1734117334835.25,-5.37109375,-35.15625,-39.55078125,38.57421875
9,1734117334839.1562,11.23046875,-41.50390625,-40.52734375,44.43359375
10,1734117334843.0625,8.7890625,-31.25,-41.50390625,48.828125
11,1734117334846.9688,-3.41796875,-27.83203125,-48.33984375,30.2734375
0,1734117334850.875,10.7421875,-31.25,-48.33984375,33.203125
1,1734117334854.7812,18.06640625,-27.83203125,-43.45703125,44.43359375
2,1734117334858.6875,5.37109375,-22.94921875,-43.9453125,29.296875
3,1734117334862.5938,-2.9296875,-25.87890625,-45.8984375,26.3671875
4,1734117334866.5,-3.90625,-22.4609375,-41.50390625,39.55078125
5,1734117334870.4062,11.23046875,-30.2734375,-38.0859375,35.64453125
6,1734117334874.3125,5.859375,-36.62109375,-38.57421875,29.78515625
7,1734117334878.2188,-18.06640625,-22.94921875,-37.59765625,27.34375
8,1734117334882.125,-25.390625,-19.53125,-37.109375,22.94921875
9,1734117334886.0312,-27.34375,-23.4375,-33.203125,28.80859375
10,1734117334889.9375,-19.53125,-21.484375,-29.78515625,27.34375
11,1734117334893.8438,-11.23046875,-20.5078125,-28.3203125,30.2734375
0,1734117334897.75,-2.9296875,-21.97265625,-28.3203125,45.8984375
1,1734117334901.6562,-15.13671875,-26.3671875,-26.3671875,38.0859375
2,1734117334905.5625,-16.6015625,-27.34375,-25.87890625,22.4609375
3,1734117334909.4688,2.44140625,-19.04296875,-23.4375,40.52734375
4,1734117334913.375,3.90625,-17.08984375,-25.87890625,42.48046875
5,1734117334917.2812,-6.8359375,-19.53125,-33.203125,19.04296875
6,1734117334921.1875,-2.44140625,-21.484375,-32.71484375,8.30078125
7,1734117334925.0938,-7.32421875,-30.2734375,-31.73828125,13.671875
8,1734117334929,-11.71875,-35.64453125,-29.296875,22.94921875
9,1734117334932.9062,18.06640625,-24.90234375,-27.34375,39.0625
10,1734117334936.8125,10.7421875,-20.99609375,-34.1796875,29.78515625
11,1734117334940.7188,-13.18359375,-24.90234375,-35.15625,13.671875
0,1734117334944.625,-7.32421875,-22.4609375,-35.15625,18.06640625
1,1734117334948.5312,0,-20.5078125,-39.0625,27.83203125
2,1734117334952.4375,-13.671875,-24.4140625,-43.45703125,27.34375
3,1734117334956.3438,-13.671875,-27.83203125,-42.48046875,17.08984375
4,1734117334960.25,-11.71875,-22.4609375,-39.55078125,9.27734375
5,1734117334964.1562,-17.08984375,-23.4375,-39.0625,24.90234375
6,1734117334968.0625,-7.8125,-25.390625,-39.0625,40.0390625
7,1734117334971.9688,-0.48828125,-18.5546875,-42.48046875,46.38671875
8,1734117334975.875,-1.953125,-15.13671875,-38.57421875,53.7109375
9,1734117334979.7812,-8.7890625,-27.83203125,-37.109375,50.29296875
10,1734117334983.6875,-16.11328125,-41.015625,-41.015625,36.1328125
11,1734117334987.5938,-10.25390625,-30.76171875,-37.109375,40.0390625
0,1734117334991.5,-4.8828125,-22.4609375,-36.1328125,44.43359375
1,1734117334995.4062,-7.8125,-23.4375,-38.57421875,35.64453125
2,1734117334999.3125,-20.99609375,-19.53125,-33.69140625,36.1328125
3,1734117335003.2188,-20.99609375,-15.625,-29.78515625,39.0625
4,1734117335007.125,-5.859375,-25.390625,-36.1328125,34.66796875
5,1734117335011.0312,-0.48828125,-28.3203125,-40.52734375,36.62109375
6,1734117335014.9375,-12.6953125,-27.34375,-39.0625,35.15625
7,1734117335018.8438,-8.30078125,-35.15625,-34.66796875,47.8515625
8,1734117335022.75,11.71875,-36.1328125,-32.71484375,66.40625
9,1734117335026.6562,0.9765625,-29.78515625,-40.0390625,42.48046875
10,1734117335030.5625,-13.671875,-30.76171875,-41.50390625,13.18359375
11,1734117335034.4688,-4.8828125,-31.73828125,-41.015625,32.71484375
0,1734117335038.375,-9.27734375,-27.83203125,-43.45703125,38.0859375
1,1734117335042.2812,-12.20703125,-32.2265625,-50.29296875,17.578125
2,1734117335046.1875,-15.625,-38.57421875,-50.78125,20.99609375
3,1734117335050.0938,1.953125,-36.1328125,-39.55078125,36.1328125
4,1734117335054,11.71875,-33.203125,-41.50390625,40.0390625
5,1734117335057.9062,11.23046875,-29.78515625,-41.50390625,34.66796875
6,1734117335061.8125,6.8359375,-28.3203125,-35.64453125,32.2265625
7,1734117335065.7188,1.46484375,-26.85546875,-31.73828125,45.8984375
8,1734117335069.625,13.671875,-24.90234375,-29.78515625,51.7578125
9,1734117335073.5312,7.8125,-39.55078125,-32.2265625,41.50390625
10,1734117335077.4375,16.6015625,-41.9921875,-38.0859375,51.7578125
11,1734117335081.3438,23.4375,-24.90234375,-42.48046875,59.08203125
0,1734117335085.25,3.41796875,-20.5078125,-39.0625,29.296875
1,1734117335089.1562,0.9765625,-24.4140625,-43.45703125,21.484375
2,1734117335093.0625,-3.41796875,-23.4375,-42.48046875,32.2265625
3,1734117335096.9688,-2.44140625,-23.92578125,-39.55078125,32.71484375
4,1734117335100.875,0.48828125,-26.85546875,-44.921875,24.90234375
5,1734117335104.7812,-3.41796875,-27.83203125,-41.9921875,27.83203125
6,1734117335108.6875,6.34765625,-28.3203125,-40.52734375,41.015625
7,1734117335112.5938,2.9296875,-20.99609375,-43.9453125,48.33984375
8,1734117335116.5,-1.46484375,-16.6015625,-44.43359375,36.62109375
9,1734117335120.4062,-3.90625,-23.92578125,-44.43359375,32.2265625
10,1734117335124.3125,-5.37109375,-32.71484375,-37.59765625,55.6640625
11,1734117335128.2188,-7.32421875,-26.85546875,-34.66796875,60.546875
0,1734117335132.125,-18.06640625,-20.01953125,-41.50390625,34.1796875
1,1734117335136.0312,-16.6015625,-18.5546875,-38.57421875,30.2734375
2,1734117335139.9375,-12.6953125,-17.08984375,-32.2265625,35.15625
3,1734117335143.8438,-3.41796875,-17.08984375,-31.73828125,31.25
4,1734117335147.75,-2.9296875,-20.99609375,-32.2265625,23.4375
5,1734117335151.6562,-17.08984375,-23.4375,-32.71484375,38.57421875
6,1734117335155.5625,-21.484375,-25.390625,-36.62109375,36.62109375
7,1734117335159.4688,-12.20703125,-29.296875,-36.62109375,21.484375
8,1734117335163.375,2.44140625,-24.90234375,-34.66796875,33.203125
9,1734117335167.2812,14.16015625,-25.87890625,-33.69140625,38.57421875
10,1734117335171.1875,0.9765625,-35.15625,-41.015625,32.2265625
11,1734117335175.0938,-4.8828125,-28.80859375,-41.50390625,32.2265625
0,1734117335179,5.37109375,-24.4140625,-36.62109375,38.0859375
1,1734117335182.9062,1.953125,-20.99609375,-37.59765625,50.29296875
2,1734117335186.8125,4.8828125,-19.53125,-39.0625,47.36328125
3,1734117335190.7188,2.44140625,-17.578125,-43.9453125,27.83203125
4,1734117335194.625,-0.48828125,-19.53125,-44.43359375,33.69140625
5,1734117335198.5312,12.6953125,-23.92578125,-39.55078125,41.9921875
6,1734117335202.4375,13.18359375,-20.99609375,-37.109375,29.296875
7,1734117335206.3438,5.37109375,-21.484375,-37.109375,23.4375
8,1734117335210.25,15.625,-23.4375,-33.69140625,36.1328125
9,1734117335214.1562,10.7421875,-21.484375,-28.3203125,38.0859375
10,1734117335218.0625,-22.94921875,-28.80859375,-32.2265625,12.20703125
11,1734117335221.9688,-20.01953125,-34.1796875,-36.1328125,31.25
0,1734117335225.875,9.27734375,-23.92578125,-30.2734375,66.40625
1,1734117335229.7812,8.7890625,-19.53125,-28.80859375,48.33984375
2,1734117335233.6875,0.48828125,-19.04296875,-32.71484375,46.38671875
3,1734117335237.5938,5.37109375,-19.53125,-32.71484375,59.5703125
4,1734117335241.5,4.39453125,-23.4375,-35.64453125,59.5703125
5,1734117335245.4062,1.953125,-32.71484375,-31.25,59.5703125
6,1734117335249.3125,6.34765625,-33.203125,-32.2265625,50.29296875
7,1734117335253.2188,10.7421875,-32.2265625,-36.1328125,29.78515625
8,1734117335257.125,8.7890625,-28.80859375,-29.78515625,36.1328125
9,1734117335261.0312,7.32421875,-17.578125,-29.78515625,43.9453125
10,1734117335264.9375,10.25390625,-12.6953125,-35.15625,35.15625
11,1734117335268.8438,8.7890625,-10.7421875,-35.64453125,31.73828125
0,1734117335272.75,7.32421875,-17.08984375,-34.66796875,29.78515625
1,1734117335276.6562,11.71875,-24.4140625,-34.66796875,21.97265625
2,1734117335280.5625,11.71875,-27.34375,-37.59765625,26.85546875
3,1734117335284.4688,8.7890625,-25.390625,-33.203125,38.57421875
4,1734117335288.375,2.9296875,-20.5078125,-28.3203125,41.50390625
5,1734117335292.2812,5.859375,-25.87890625,-27.83203125,23.4375
6,1734117335296.1875,13.18359375,-26.3671875,-27.83203125,26.3671875
7,1734117335300.0938,0,-14.6484375,-25.390625,53.22265625
8,1734117335304,-7.32421875,-16.11328125,-23.92578125,52.734375
9,1734117335307.9062,0.48828125,-22.94921875,-20.99609375,56.640625
10,1734117335311.8125,-2.44140625,-22.94921875,-22.94921875,43.45703125
11,1734117335315.7188,-7.32421875,-23.4375,-28.80859375,27.83203125
0,1734117335319.625,-10.7421875,-17.08984375,-26.85546875,36.62109375
1,1734117335323.5312,-7.32421875,-20.01953125,-27.83203125,36.1328125
2,1734117335327.4375,1.46484375,-27.34375,-31.25,28.3203125
3,1734117335331.3438,3.41796875,-17.578125,-27.34375,34.66796875
4,1734117335335.25,3.41796875,-12.6953125,-27.83203125,27.83203125
5,1734117335339.1562,-18.06640625,-12.6953125,-32.71484375,23.92578125
6,1734117335343.0625,-13.671875,-11.23046875,-30.2734375,26.85546875
7,1734117335346.9688,5.859375,-10.7421875,-30.76171875,15.625
8,1734117335350.875,-3.41796875,-9.765625,-26.3671875,26.3671875
9,1734117335354.7812,-9.27734375,-16.11328125,-30.2734375,29.296875
10,1734117335358.6875,-18.5546875,-21.484375,-38.57421875,1.953125
11,1734117335362.5938,-12.20703125,-24.4140625,-35.64453125,-0.9765625
0,1734117335366.5,-2.44140625,-29.78515625,-30.2734375,16.11328125
1,1734117335370.4062,-8.7890625,-21.97265625,-30.76171875,15.13671875
2,1734117335374.3125,-3.41796875,-10.25390625,-30.76171875,17.08984375
3,1734117335378.2188,5.37109375,-5.859375,-30.2734375,11.71875
4,1734117335382.125,0.48828125,-2.9296875,-30.2734375,4.8828125
5,1734117335386.0312,0.48828125,-10.25390625,-32.2265625,19.04296875
6,1734117335389.9375,0.48828125,-15.625,-38.0859375,19.04296875
7,1734117335393.8438,5.37109375,-10.7421875,-33.203125,4.8828125
8,1734117335397.75,15.625,-13.18359375,-29.78515625,22.94921875
9,1734117335401.6562,13.671875,-19.04296875,-35.15625,38.57421875
10,1734117335405.5625,11.23046875,-11.71875,-34.1796875,34.1796875
11,1734117335409.4688,1.953125,-8.7890625,-38.0859375,36.62109375
0,1734117335413.375,5.859375,-14.16015625,-42.48046875,45.41015625
1,1734117335417.2812,4.39453125,-16.11328125,-38.0859375,36.1328125
2,1734117335421.1875,-5.37109375,-21.484375,-36.62109375,24.90234375
3,1734117335425.0938,16.6015625,-21.97265625,-41.015625,32.2265625
4,1734117335429,17.578125,-12.6953125,-38.0859375,44.43359375
5,1734117335432.9062,9.27734375,-11.23046875,-36.1328125,45.41015625
6,1734117335436.8125,4.8828125,-27.83203125,-39.55078125,28.80859375
7,1734117335440.7188,-3.41796875,-28.3203125,-35.64453125,22.94921875
8,1734117335444.625,-5.859375,-12.6953125,-37.109375,10.7421875
9,1734117335448.5312,-2.9296875,-12.6953125,-39.0625,16.11328125
10,1734117335452.4375,11.23046875,-17.08984375,-40.52734375,28.80859375
11,1734117335456.3438,7.8125,-15.13671875,-40.52734375,32.71484375
0,1734117335460.25,2.44140625,-9.27734375,-40.0390625,44.43359375
1,1734117335464.1562,17.578125,-5.37109375,-39.0625,57.12890625
2,1734117335468.0625,21.484375,-12.20703125,-38.0859375,45.8984375
3,1734117335471.9688,8.7890625,-11.71875,-40.0390625,33.203125
4,1734117335475.875,0.9765625,-8.7890625,-37.109375,33.69140625
5,1734117335479.7812,-13.671875,-15.625,-29.78515625,34.66796875
6,1734117335483.6875,-23.4375,-25.87890625,-24.90234375,21.484375
7,1734117335487.5938,-17.08984375,-20.5078125,-27.83203125,18.5546875
8,1734117335491.5,-23.92578125,-12.20703125,-29.296875,21.484375
9,1734117335495.4062,-21.97265625,-8.30078125,-26.85546875,19.53125
10,1734117335499.3125,-7.32421875,-15.625,-24.4140625,40.52734375
11,1734117335503.2188,-18.5546875,-22.4609375,-21.484375,46.875
0,1734117335507.125,-15.625,-8.30078125,-29.78515625,29.296875
1,1734117335511.0312,2.44140625,-3.41796875,-35.15625,20.5078125
2,1734117335514.9375,-4.8828125,-6.8359375,-35.15625,24.4140625
3,1734117335518.8438,-18.5546875,-9.765625,-35.64453125,20.99609375
4,1734117335522.75,-30.2734375,-13.18359375,-30.2734375,4.8828125
5,1734117335526.6562,-22.94921875,-14.16015625,-28.80859375,-0.9765625
6,1734117335530.5625,-41.9921875,-17.08984375,-28.80859375,18.06640625
7,1734117335534.4688,-48.828125,-24.4140625,-25.87890625,26.85546875
8,1734117335538.375,-27.83203125,-35.15625,-27.34375,18.5546875
9,1734117335542.2812,-25.390625,-34.66796875,-31.25,16.6015625
10,1734117335546.1875,-7.32421875,-30.2734375,-34.66796875,11.71875
11,1734117335550.0938,-5.37109375,-28.3203125,-32.2265625,15.625
0,1734117335554,-6.8359375,-23.92578125,-29.78515625,39.0625
1,1734117335557.9062,0,-18.06640625,-27.83203125,44.921875
2,1734117335561.8125,5.37109375,-21.97265625,-31.73828125,25.87890625
3,1734117335565.7188,-20.99609375,-33.203125,-34.66796875,24.4140625
4,1734117335569.625,-27.34375,-29.78515625,-33.203125,30.2734375
5,1734117335573.5312,12.20703125,-19.53125,-27.83203125,51.26953125
6,1734117335577.4375,18.06640625,-17.578125,-27.34375,32.71484375
7,1734117335581.3438,4.8828125,-23.4375,-32.71484375,23.92578125
8,1734117335585.25,-10.7421875,-26.85546875,-34.66796875,55.6640625
9,1734117335589.1562,7.8125,-24.4140625,-30.2734375,66.89453125
10,1734117335593.0625,21.484375,-19.53125,-25.87890625,64.453125
11,1734117335596.9688,14.6484375,-24.90234375,-32.71484375,32.71484375
0,1734117335600.875,22.94921875,-30.2734375,-34.1796875,29.296875
1,1734117335604.7812,19.04296875,-18.06640625,-27.83203125,35.64453125
2,1734117335608.6875,12.20703125,-13.671875,-28.80859375,21.97265625
3,1734117335612.5938,15.13671875,-16.11328125,-29.296875,37.59765625
4,1734117335616.5,14.6484375,-16.6015625,-28.80859375,58.10546875
5,1734117335620.4062,13.18359375,-13.671875,-29.296875,46.38671875
6,1734117335624.3125,17.08984375,-12.6953125,-31.25,40.0390625
7,1734117335628.2188,14.6484375,-15.13671875,-35.64453125,42.48046875
8,1734117335632.125,5.37109375,-23.92578125,-36.1328125,31.25
9,1734117335636.0312,7.8125,-32.71484375,-36.1328125,32.2265625
10,1734117335639.9375,13.18359375,-19.53125,-37.59765625,35.64453125
11,1734117335643.8438,15.13671875,-13.18359375,-36.62109375,30.2734375
0,1734117335647.75,14.6484375,-22.94921875,-32.71484375,37.109375
1,1734117335651.6562,17.578125,-24.4140625,-32.71484375,39.0625
2,1734117335655.5625,11.23046875,-25.390625,-28.80859375,39.0625
3,1734117335659.4688,12.20703125,-28.80859375,-23.92578125,23.92578125
4,1734117335663.375,21.97265625,-18.5546875,-27.83203125,28.3203125
5,1734117335667.2812,-1.953125,-17.08984375,-32.71484375,44.43359375
6,1734117335671.1875,-14.6484375,-21.97265625,-34.66796875,44.43359375
7,1734117335675.0938,-10.25390625,-19.04296875,-33.203125,44.921875
8,1734117335679,-0.9765625,-14.16015625,-24.90234375,48.33984375
9,1734117335682.9062,0.48828125,-23.92578125,-24.90234375,45.8984375
10,1734117335686.8125,-3.90625,-34.1796875,-33.69140625,35.64453125
11,1734117335690.7188,16.11328125,-26.3671875,-33.203125,47.36328125
0,1734117335694.625,28.3203125,-18.5546875,-30.76171875,42.48046875
1,1734117335698.5312,10.7421875,-19.04296875,-33.69140625,23.4375
2,1734117335702.4375,-10.25390625,-22.4609375,-40.52734375,19.53125
3,1734117335706.3438,-9.765625,-24.4140625,-40.0390625,32.71484375
4,1734117335710.25,8.30078125,-22.4609375,-38.0859375,29.78515625
5,1734117335714.1562,13.671875,-13.671875,-39.0625,17.08984375
6,1734117335718.0625,0.48828125,-16.6015625,-42.48046875,20.5078125
7,1734117335721.9688,-15.13671875,-17.578125,-41.9921875,46.38671875
8,1734117335725.875,6.8359375,-15.13671875,-37.59765625,44.921875
9,1734117335729.7812,17.08984375,-14.6484375,-38.0859375,21.484375
10,1734117335733.6875,2.9296875,-15.13671875,-39.0625,27.83203125
11,1734117335737.5938,2.9296875,-16.6015625,-35.64453125,47.36328125
0,1734117335741.5,1.46484375,-26.3671875,-34.66796875,45.41015625
1,1734117335745.4062,-14.16015625,-28.3203125,-35.15625,24.4140625
2,1734117335749.3125,-17.578125,-23.92578125,-37.109375,33.69140625
3,1734117335753.2188,-5.37109375,-19.53125,-33.69140625,55.17578125
4,1734117335757.125,-10.7421875,-16.11328125,-24.90234375,64.94140625
5,1734117335761.0312,-8.7890625,-18.5546875,-23.4375,53.7109375
6,1734117335764.9375,-6.8359375,-20.5078125,-29.78515625,37.59765625
7,1734117335768.8438,-11.23046875,-23.92578125,-31.25,42.48046875
8,1734117335772.75,-7.32421875,-23.4375,-26.3671875,58.10546875
9,1734117335776.6562,-0.48828125,-20.5078125,-31.25,64.453125
10,1734117335780.5625,12.6953125,-26.3671875,-32.71484375,61.03515625
11,1734117335784.4688,21.97265625,-20.01953125,-27.83203125,62.01171875
0,1734117335788.375,30.2734375,-9.27734375,-30.2734375,67.87109375
1,1734117335792.2812,31.73828125,-16.11328125,-32.71484375,64.94140625
2,1734117335796.1875,27.34375,-21.97265625,-30.76171875,67.87109375
3,1734117335800.0938,17.08984375,-24.4140625,-34.66796875,81.0546875
4,1734117335804,-2.44140625,-24.4140625,-33.69140625,68.84765625
5,1734117335807.9062,-6.8359375,-20.99609375,-32.2265625,50.78125
6,1734117335811.8125,3.90625,-24.4140625,-37.109375,45.41015625
7,1734117335815.7188,4.39453125,-28.80859375,-34.1796875,46.875
8,1734117335819.625,-9.27734375,-19.04296875,-39.0625,29.78515625
9,1734117335823.5312,-14.16015625,-14.6484375,-44.43359375,30.76171875
10,1734117335827.4375,-8.7890625,-13.18359375,-36.62109375,46.38671875
11,1734117335831.3438,-25.87890625,-15.13671875,-33.203125,46.38671875
0,1734117335835.25,-30.76171875,-17.578125,-35.15625,37.59765625
1,1734117335839.1562,-10.25390625,-22.94921875,-32.2265625,38.0859375
2,1734117335843.0625,-21.484375,-27.34375,-35.15625,34.1796875
3,1734117335846.9688,-23.4375,-17.08984375,-33.203125,29.78515625
4,1734117335850.875,-10.7421875,-13.18359375,-24.4140625,39.0625
5,1734117335854.7812,-10.7421875,-21.484375,-23.92578125,34.1796875
6,1734117335858.6875,-10.25390625,-23.4375,-22.94921875,43.9453125
7,1734117335862.5938,0,-17.08984375,-24.4140625,44.921875
8,1734117335866.5,-2.44140625,-15.625,-29.296875,37.109375
9,1734117335870.4062,-7.8125,-26.3671875,-31.73828125,49.31640625
10,1734117335874.3125,0.48828125,-29.296875,-30.2734375,48.33984375
11,1734117335878.2188,3.90625,-17.578125,-29.78515625,42.96875
0,1734117335882.125,5.859375,-13.18359375,-36.1328125,54.6875
1,1734117335886.0312,13.18359375,-17.578125,-35.64453125,71.77734375
2,1734117335889.9375,13.671875,-26.85546875,-30.76171875,67.3828125
3,1734117335893.8438,8.30078125,-21.97265625,-32.71484375,47.8515625
4,1734117335897.75,17.578125,-14.6484375,-32.2265625,42.48046875
5,1734117335901.6562,19.04296875,-20.99609375,-30.76171875,42.48046875
6,1734117335905.5625,14.16015625,-21.97265625,-30.2734375,42.48046875
7,1734117335909.4688,17.08984375,-13.671875,-34.1796875,36.1328125
8,1734117335913.375,7.8125,-12.6953125,-35.64453125,19.04296875
9,1734117335917.2812,0.48828125,-8.7890625,-34.1796875,10.25390625
10,1734117335921.1875,-0.48828125,-13.671875,-40.52734375,6.34765625
11,1734117335925.0938,1.953125,-20.5078125,-40.52734375,9.27734375
0,1734117335929,-9.27734375,-7.32421875,-39.0625,20.99609375
1,1734117335932.9062,-26.85546875,-3.90625,-36.62109375,18.5546875
2,1734117335936.8125,-25.390625,-11.23046875,-34.1796875,6.8359375
3,1734117335940.7188,-38.0859375,-17.08984375,-34.66796875,-0.48828125
4,1734117335944.625,-42.48046875,-17.08984375,-36.1328125,0
5,1734117335948.5312,-25.87890625,-9.765625,-32.2265625,19.53125
6,1734117335952.4375,-28.3203125,-9.27734375,-29.78515625,24.4140625
7,1734117335956.3438,-27.83203125,-12.6953125,-32.2265625,19.53125
8,1734117335960.25,-24.4140625,-16.11328125,-34.66796875,20.01953125
9,1734117335964.1562,-18.06640625,-16.11328125,-33.203125,29.296875
10,1734117335968.0625,-12.6953125,-25.390625,-29.78515625,25.390625
11,1734117335971.9688,-20.99609375,-29.78515625,-32.2265625,16.11328125
0,1734117335975.875,-11.71875,-14.16015625,-28.80859375,26.3671875
1,1734117335979.7812,-6.8359375,-11.23046875,-25.390625,21.97265625
2,1734117335983.6875,-22.4609375,-6.8359375,-25.87890625,27.34375
3,1734117335987.5938,-18.06640625,-7.32421875,-29.296875,13.671875
4,1734117335991.5,-14.6484375,-14.6484375,-34.66796875,-5.859375
5,1734117335995.4062,-12.20703125,-17.578125,-36.1328125,20.5078125
6,1734117335999.3125,-24.4140625,-19.04296875,-35.64453125,28.3203125
7,1734117336003.2188,-32.2265625,-22.4609375,-36.1328125,3.41796875
8,1734117336007.125,-9.765625,-26.3671875,-34.1796875,19.53125
9,1734117336011.0312,-1.953125,-25.390625,-34.1796875,38.0859375
10,1734117336014.9375,0.9765625,-20.5078125,-35.64453125,31.73828125
11,1734117336018.8438,-2.44140625,-21.484375,-35.64453125,25.87890625
0,1734117336022.75,-6.34765625,-22.4609375,-38.57421875,20.99609375
1,1734117336026.6562,-3.90625,-17.578125,-38.57421875,17.578125
2,1734117336030.5625,-5.37109375,-19.53125,-35.64453125,17.08984375
3,1734117336034.4688,0.48828125,-31.25,-34.1796875,22.4609375
4,1734117336038.375,4.8828125,-22.94921875,-29.296875,32.71484375
5,1734117336042.2812,-9.27734375,-14.6484375,-33.203125,30.76171875
6,1734117336046.1875,-5.37109375,-14.16015625,-37.109375,33.203125
7,1734117336050.0938,-0.9765625,-10.25390625,-35.15625,41.015625
8,1734117336054,-1.953125,-14.6484375,-35.15625,38.0859375
9,1734117336057.9062,8.30078125,-15.13671875,-36.62109375,42.48046875
10,1734117336061.8125,-2.9296875,-20.5078125,-43.9453125,33.203125
11,1734117336065.7188,-5.37109375,-25.390625,-45.41015625,35.64453125
0,1734117336069.625,-2.9296875,-24.4140625,-38.0859375,40.0390625
1,1734117336073.5312,-10.25390625,-25.87890625,-34.66796875,36.1328125
2,1734117336077.4375,-8.7890625,-33.69140625,-38.0859375,36.1328125
3,1734117336081.3438,-1.953125,-30.76171875,-38.0859375,46.38671875
4,1734117336085.25,-2.9296875,-24.4140625,-36.1328125,47.8515625
5,1734117336089.1562,-3.41796875,-33.203125,-38.0859375,40.52734375
6,1734117336093.0625,-9.27734375,-43.45703125,-42.48046875,36.1328125
7,1734117336096.9688,-29.296875,-39.55078125,-40.52734375,17.08984375
8,1734117336100.875,-14.16015625,-28.80859375,-34.66796875,22.4609375
9,1734117336104.7812,-0.9765625,-29.296875,-35.64453125,28.80859375
10,1734117336108.6875,-2.44140625,-33.69140625,-37.109375,16.11328125
11,1734117336112.5938,-1.46484375,-33.69140625,-32.71484375,23.4375
0,1734117336116.5,-5.859375,-21.97265625,-31.25,34.1796875
1,1734117336120.4062,-6.34765625,-13.18359375,-32.2265625,22.94921875
2,1734117336124.3125,-5.37109375,-16.6015625,-32.2265625,20.99609375
3,1734117336128.2188,-6.34765625,-19.53125,-35.64453125,33.203125
4,1734117336132.125,-5.859375,-13.671875,-33.69140625,32.71484375
5,1734117336136.0312,3.41796875,-4.39453125,-30.76171875,29.296875
6,1734117336139.9375,15.13671875,-5.859375,-29.296875,32.71484375
7,1734117336143.8438,20.01953125,-9.27734375,-28.3203125,38.0859375
8,1734117336147.75,4.8828125,-12.20703125,-24.90234375,53.22265625
9,1734117336151.6562,2.9296875,-23.92578125,-27.83203125,43.45703125
10,1734117336155.5625,16.6015625,-26.3671875,-34.66796875,17.578125
11,1734117336159.4688,19.53125,-19.04296875,-28.80859375,24.4140625
0,1734117336163.375,9.27734375,-16.11328125,-23.4375,24.4140625
1,1734117336167.2812,9.765625,-16.6015625,-20.99609375,29.296875
2,1734117336171.1875,30.2734375,-19.53125,-20.01953125,36.62109375
3,1734117336175.0938,26.3671875,-18.5546875,-28.80859375,28.80859375
4,1734117336179,20.01953125,-16.6015625,-33.203125,30.2734375
5,1734117336182.9062,20.5078125,-19.53125,-28.3203125,33.203125
6,1734117336186.8125,13.671875,-23.4375,-33.69140625,30.2734375
7,1734117336190.7188,16.6015625,-15.13671875,-38.0859375,26.3671875
8,1734117336194.625,4.8828125,-23.92578125,-38.57421875,22.94921875
9,1734117336198.5312,-8.7890625,-39.0625,-37.59765625,7.8125
10,1734117336202.4375,-4.39453125,-27.34375,-28.80859375,8.30078125
11,1734117336206.3438,-16.11328125,-16.6015625,-29.78515625,14.6484375
0,1734117336210.25,-28.80859375,-19.53125,-31.25,10.7421875
1,1734117336214.1562,-27.34375,-28.80859375,-32.2265625,13.18359375
2,1734117336218.0625,-25.87890625,-27.34375,-33.203125,9.765625
3,1734117336221.9688,-16.6015625,-25.87890625,-34.1796875,7.8125
4,1734117336225.875,0.48828125,-26.3671875,-41.015625,10.7421875
5,1734117336229.7812,10.25390625,-24.4140625,-35.64453125,-17.578125
6,1734117336233.6875,8.30078125,-21.484375,-30.2734375,-4.39453125
7,1734117336237.5938,21.97265625,-23.4375,-28.3203125,35.64453125
8,1734117336241.5,18.06640625,-15.13671875,-27.34375,27.83203125
9,1734117336245.4062,9.765625,-8.7890625,-29.296875,23.92578125
10,1734117336249.3125,30.2734375,-13.671875,-26.3671875,39.0625
11,1734117336253.2188,22.94921875,-16.11328125,-22.4609375,49.8046875
0,1734117336257.125,11.71875,-19.53125,-25.390625,36.62109375
1,1734117336261.0312,13.671875,-21.484375,-24.90234375,34.1796875
2,1734117336264.9375,0,-25.390625,-21.97265625,50.29296875
3,1734117336268.8438,-6.34765625,-26.85546875,-24.4140625,46.875
4,1734117336272.75,-7.8125,-23.4375,-21.97265625,27.34375
5,1734117336276.6562,-0.48828125,-16.11328125,-15.13671875,53.7109375
6,1734117336280.5625,-4.39453125,-15.13671875,-15.625,77.1484375
7,1734117336284.4688,-36.1328125,-15.625,-21.484375,65.91796875
8,1734117336288.375,-21.97265625,-18.5546875,-20.5078125,35.64453125
9,1734117336292.2812,-5.859375,-29.78515625,-21.484375,10.7421875
10,1734117336296.1875,-26.85546875,-29.78515625,-23.92578125,31.25
11,1734117336300.0938,-42.96875,-22.4609375,-25.87890625,38.0859375
0,1734117336304,-31.25,-26.85546875,-29.78515625,22.4609375
1,1734117336307.9062,-18.06640625,-27.83203125,-26.85546875,24.90234375
2,1734117336311.8125,-33.203125,-23.4375,-28.80859375,29.296875
3,1734117336315.7188,-24.90234375,-20.99609375,-35.15625,21.97265625
4,1734117336319.625,-22.94921875,-19.53125,-34.66796875,14.16015625
5,1734117336323.5312,-2.9296875,-13.671875,-31.73828125,28.80859375
6,1734117336327.4375,14.16015625,-4.39453125,-31.73828125,40.52734375
7,1734117336331.3438,2.9296875,-5.37109375,-35.15625,32.71484375
8,1734117336335.25,11.23046875,-8.7890625,-34.66796875,48.828125
9,1734117336339.1562,29.296875,-16.6015625,-24.4140625,41.015625
10,1734117336343.0625,32.71484375,-20.01953125,-23.92578125,21.97265625
11,1734117336346.9688,7.32421875,-15.13671875,-32.2265625,39.0625
0,1734117336350.875,21.97265625,-9.27734375,-31.25,35.64453125
1,1734117336354.7812,31.25,-18.06640625,-29.296875,43.9453125
2,1734117336358.6875,15.13671875,-23.4375,-35.15625,53.22265625
3,1734117336362.5938,11.71875,-16.11328125,-35.15625,37.109375
4,1734117336366.5,-0.48828125,-15.625,-33.69140625,28.80859375
5,1734117336370.4062,6.34765625,-19.53125,-35.64453125,41.50390625
6,1734117336374.3125,5.37109375,-21.484375,-36.62109375,41.9921875
7,1734117336378.2188,-18.5546875,-23.4375,-43.9453125,25.87890625
8,1734117336382.125,-8.30078125,-19.53125,-37.59765625,29.78515625
9,1734117336386.0312,-3.90625,-25.87890625,-33.69140625,32.2265625
10,1734117336389.9375,-22.94921875,-31.25,-40.52734375,17.08984375
11,1734117336393.8438,-30.76171875,-27.83203125,-38.0859375,21.484375
0,1734117336397.75,-28.80859375,-29.296875,-30.2734375,31.73828125
1,1734117336401.6562,-31.73828125,-27.34375,-34.1796875,34.66796875
2,1734117336405.5625,-36.1328125,-21.484375,-44.921875,25.390625
3,1734117336409.4688,-22.4609375,-19.04296875,-41.9921875,-6.34765625
4,1734117336413.375,-15.625,-20.01953125,-34.1796875,12.6953125
5,1734117336417.2812,-26.85546875,-23.92578125,-29.296875,29.78515625
6,1734117336421.1875,-6.34765625,-29.296875,-24.90234375,15.13671875
7,1734117336425.0938,-3.41796875,-25.390625,-30.76171875,24.90234375
8,1734117336429,-19.04296875,-18.06640625,-35.64453125,36.62109375
9,1734117336432.9062,-8.7890625,-10.7421875,-38.57421875,28.80859375
10,1734117336436.8125,-7.8125,-9.765625,-39.55078125,13.18359375
11,1734117336440.7188,-9.765625,-13.671875,-29.78515625,26.3671875
0,1734117336444.625,-4.8828125,-14.16015625,-30.2734375,17.08984375
1,1734117336448.5312,-0.48828125,-12.6953125,-34.1796875,11.23046875
2,1734117336452.4375,6.34765625,-13.671875,-33.69140625,12.20703125
3,1734117336456.3438,9.27734375,-14.16015625,-31.73828125,-1.46484375
4,1734117336460.25,9.765625,-15.13671875,-30.2734375,20.01953125
5,1734117336464.1562,8.30078125,-18.06640625,-31.73828125,27.83203125
6,1734117336468.0625,-3.41796875,-23.4375,-33.203125,27.83203125
7,1734117336471.9688,0.48828125,-23.92578125,-33.69140625,38.0859375
8,1734117336475.875,17.578125,-11.71875,-26.3671875,30.2734375
9,1734117336479.7812,16.11328125,-9.765625,-29.296875,9.27734375
10,1734117336483.6875,4.39453125,-16.11328125,-34.1796875,4.8828125
11,1734117336487.5938,7.32421875,-20.99609375,-28.80859375,25.390625
0,1734117336491.5,17.578125,-21.484375,-27.34375,35.64453125
1,1734117336495.4062,12.6953125,-19.04296875,-33.203125,33.203125
2,1734117336499.3125,20.5078125,-25.87890625,-37.59765625,21.97265625
3,1734117336503.2188,21.484375,-25.87890625,-31.25,41.9921875
4,1734117336507.125,20.99609375,-19.04296875,-30.2734375,57.6171875
5,1734117336511.0312,25.87890625,-18.06640625,-30.76171875,50.29296875
6,1734117336514.9375,30.2734375,-35.64453125,-35.15625,48.33984375
7,1734117336518.8438,21.484375,-44.921875,-39.55078125,34.1796875
8,1734117336522.75,16.6015625,-32.2265625,-36.62109375,27.83203125
9,1734117336526.6562,8.30078125,-25.390625,-39.0625,30.2734375
10,1734117336530.5625,-5.37109375,-24.90234375,-39.0625,12.6953125
11,1734117336534.4688,-2.9296875,-22.4609375,-35.64453125,9.27734375
0,1734117336538.375,1.46484375,-18.06640625,-36.1328125,2.9296875
1,1734117336542.2812,5.37109375,-20.5078125,-37.109375,8.7890625
2,1734117336546.1875,14.16015625,-18.06640625,-33.203125,29.296875
3,1734117336550.0938,4.8828125,-15.625,-27.34375,16.6015625
4,1734117336554,-32.71484375,-18.06640625,-30.2734375,12.20703125
5,1734117336557.9062,-21.97265625,-21.484375,-31.25,9.765625
6,1734117336561.8125,14.16015625,-26.3671875,-29.78515625,8.7890625
7,1734117336565.7188,12.6953125,-29.296875,-26.3671875,27.83203125
8,1734117336569.625,-7.8125,-27.34375,-29.296875,18.06640625
9,1734117336573.5312,-5.859375,-29.78515625,-36.62109375,4.39453125
10,1734117336577.4375,5.859375,-25.390625,-30.76171875,28.80859375
11,1734117336581.3438,8.30078125,-20.01953125,-28.80859375,21.97265625
0,1734117336585.25,17.08984375,-20.01953125,-30.2734375,-4.39453125
1,1734117336589.1562,12.20703125,-17.578125,-32.71484375,36.62109375
2,1734117336593.0625,20.5078125,-12.6953125,-33.203125,69.3359375
3,1734117336596.9688,13.18359375,-11.23046875,-29.296875,50.29296875
4,1734117336600.875,8.7890625,-13.671875,-39.0625,31.25
5,1734117336604.7812,9.765625,-13.671875,-41.9921875,35.64453125
6,1734117336608.6875,8.7890625,-13.671875,-29.296875,58.59375
7,1734117336612.5938,34.1796875,-14.6484375,-28.80859375,62.98828125
8,1734117336616.5,34.66796875,-14.16015625,-40.0390625,26.85546875
9,1734117336620.4062,13.18359375,-15.625,-43.9453125,17.08984375
10,1734117336624.3125,33.69140625,-8.7890625,-36.62109375,17.578125
11,1734117336628.2188,37.109375,-3.90625,-37.109375,16.11328125
0,1734117336632.125,22.94921875,-17.578125,-43.45703125,27.83203125
1,1734117336636.0312,33.203125,-18.06640625,-33.203125,34.66796875
2,1734117336639.9375,29.78515625,-8.30078125,-34.1796875,16.11328125
3,1734117336643.8438,-0.48828125,-11.23046875,-42.48046875,13.671875
4,1734117336647.75,-15.625,-11.71875,-41.015625,8.30078125
5,1734117336651.6562,13.671875,-17.08984375,-42.48046875,-18.5546875
6,1734117336655.5625,18.5546875,-17.08984375,-36.1328125,4.39453125
7,1734117336659.4688,4.8828125,-19.04296875,-32.71484375,27.34375
8,1734117336663.375,-10.25390625,-24.4140625,-37.59765625,9.765625
9,1734117336667.2812,-11.71875,-28.3203125,-38.57421875,6.8359375
10,1734117336671.1875,-12.20703125,-30.76171875,-40.0390625,31.25
11,1734117336675.0938,-7.8125,-24.90234375,-41.9921875,30.76171875
0,1734117336679,-10.7421875,-23.92578125,-40.52734375,5.37109375
1,1734117336682.9062,-8.30078125,-32.2265625,-34.66796875,31.73828125
2,1734117336686.8125,5.859375,-28.3203125,-30.76171875,39.55078125
3,1734117336690.7188,-1.953125,-21.97265625,-31.25,27.34375
4,1734117336694.625,-9.27734375,-20.5078125,-37.59765625,32.2265625
5,1734117336698.5312,8.7890625,-19.53125,-37.109375,49.31640625
6,1734117336702.4375,13.18359375,-21.484375,-38.0859375,46.38671875
7,1734117336706.3438,-6.8359375,-20.01953125,-36.1328125,14.16015625
8,1734117336710.25,-14.16015625,-22.94921875,-35.64453125,14.16015625
9,1734117336714.1562,-6.8359375,-24.4140625,-51.26953125,27.34375
10,1734117336718.0625,0.48828125,-27.34375,-44.43359375,22.4609375
11,1734117336721.9688,-27.34375,-32.2265625,-35.15625,5.859375
0,1734117336725.875,-20.99609375,-29.296875,-40.52734375,2.44140625
1,1734117336729.7812,-0.48828125,-25.390625,-40.0390625,9.27734375
2,1734117336733.6875,-17.578125,-24.90234375,-36.1328125,17.578125
3,1734117336737.5938,-10.7421875,-30.2734375,-39.55078125,9.765625
4,1734117336741.5,-20.01953125,-32.2265625,-43.45703125,3.41796875
5,1734117336745.4062,-26.85546875,-29.78515625,-42.48046875,7.32421875
6,1734117336749.3125,-7.32421875,-37.109375,-41.015625,-11.23046875
7,1734117336753.2188,-5.37109375,-37.59765625,-47.36328125,-13.18359375
8,1734117336757.125,-11.23046875,-16.11328125,-49.31640625,7.32421875
9,1734117336761.0312,-13.671875,-7.32421875,-39.55078125,0
10,1734117336764.9375,-6.8359375,-23.4375,-41.015625,-9.27734375
11,1734117336768.8438,-5.859375,-24.90234375,-43.45703125,21.97265625
0,1734117336772.75,-4.39453125,-17.08984375,-35.64453125,27.83203125
1,1734117336776.6562,0.9765625,-18.06640625,-35.64453125,22.94921875
2,1734117336780.5625,0.48828125,-19.53125,-35.15625,32.71484375
3,1734117336784.4688,0,-28.80859375,-33.203125,34.1796875
4,1734117336788.375,6.34765625,-28.80859375,-32.2265625,35.64453125
5,1734117336792.2812,0.9765625,-19.53125,-21.484375,40.52734375
6,1734117336796.1875,4.39453125,-16.6015625,-21.97265625,26.85546875
7,1734117336800.0938,14.16015625,-18.5546875,-28.80859375,20.01953125
8,1734117336804,9.27734375,-20.01953125,-27.34375,23.92578125
9,1734117336807.9062,-12.20703125,-19.53125,-25.87890625,31.73828125
10,1734117336811.8125,-20.5078125,-28.80859375,-32.2265625,29.78515625
11,1734117336815.7188,-20.5078125,-33.69140625,-37.59765625,17.08984375
0,1734117336819.625,-31.25,-24.90234375,-32.2265625,16.6015625
1,1734117336823.5312,-21.97265625,-22.4609375,-35.15625,17.08984375
2,1734117336827.4375,-24.90234375,-21.97265625,-32.71484375,13.18359375
3,1734117336831.3438,-44.921875,-25.390625,-26.85546875,30.2734375
4,1734117336835.25,-43.45703125,-27.34375,-30.76171875,10.25390625
5,1734117336839.1562,-24.90234375,-28.3203125,-37.109375,-9.765625
6,1734117336843.0625,-18.06640625,-32.2265625,-41.50390625,32.2265625
7,1734117336846.9688,-7.8125,-28.3203125,-40.52734375,45.8984375
8,1734117336850.875,-5.859375,-20.99609375,-37.109375,51.26953125
9,1734117336854.7812,-8.7890625,-20.99609375,-38.57421875,42.96875
10,1734117336858.6875,4.39453125,-20.01953125,-38.0859375,38.0859375
11,1734117336862.5938,0.48828125,-23.4375,-35.15625,33.203125
0,1734117336866.5,-7.32421875,-29.78515625,-37.59765625,34.66796875
1,1734117336870.4062,-0.48828125,-30.2734375,-40.52734375,42.48046875
2,1734117336874.3125,8.30078125,-26.85546875,-41.50390625,35.64453125
3,1734117336878.2188,18.5546875,-23.4375,-44.43359375,35.15625
4,1734117336882.125,12.20703125,-16.6015625,-43.9453125,28.80859375
5,1734117336886.0312,-5.859375,-14.16015625,-45.41015625,23.4375
6,1734117336889.9375,1.953125,-20.99609375,-49.31640625,32.71484375
7,1734117336893.8438,10.7421875,-22.4609375,-48.828125,40.52734375
8,1734117336897.75,-9.27734375,-25.87890625,-45.8984375,48.33984375
9,1734117336901.6562,-25.87890625,-41.015625,-46.38671875,26.3671875
10,1734117336905.5625,-4.8828125,-37.59765625,-44.43359375,23.92578125
11,1734117336909.4688,2.9296875,-26.85546875,-45.41015625,17.08984375
0,1734117336913.375,-9.27734375,-25.390625,-45.41015625,5.37109375
1,1734117336917.2812,-16.11328125,-28.80859375,-44.921875,12.6953125
2,1734117336921.1875,2.9296875,-24.4140625,-45.8984375,-1.46484375
3,1734117336925.0938,-3.41796875,-20.99609375,-45.8984375,-0.9765625
4,1734117336929,-18.5546875,-26.3671875,-48.33984375,18.5546875
5,1734117336932.9062,-13.18359375,-25.87890625,-46.38671875,38.57421875
6,1734117336936.8125,-5.37109375,-23.92578125,-42.48046875,35.15625
7,1734117336940.7188,2.44140625,-18.06640625,-41.015625,28.3203125
8,1734117336944.625,-2.9296875,-13.18359375,-38.57421875,23.92578125
9,1734117336948.5312,-2.9296875,-14.6484375,-34.66796875,23.4375
10,1734117336952.4375,18.06640625,-14.16015625,-30.76171875,33.69140625
11,1734117336956.3438,29.296875,-6.34765625,-20.99609375,54.6875
0,1734117336960.25,24.4140625,-7.32421875,-28.80859375,39.55078125
1,1734117336964.1562,21.484375,-20.5078125,-34.1796875,15.625
2,1734117336968.0625,33.69140625,-23.92578125,-23.4375,50.78125
3,1734117336971.9688,43.9453125,-11.23046875,-27.83203125,59.5703125
4,1734117336975.875,20.5078125,-5.37109375,-31.73828125,41.015625
5,1734117336979.7812,12.20703125,-13.671875,-30.2734375,37.59765625
6,1734117336983.6875,47.8515625,-14.6484375,-33.203125,53.22265625
7,1734117336987.5938,51.7578125,-9.27734375,-37.59765625,52.24609375
8,1734117336991.5,25.87890625,-7.32421875,-40.0390625,30.76171875
9,1734117336995.4062,27.34375,-9.27734375,-40.0390625,26.3671875
10,1734117336999.3125,32.2265625,-11.71875,-35.64453125,29.296875
11,1734117337003.2188,20.5078125,-10.25390625,-33.69140625,40.52734375
0,1734117337007.125,2.9296875,-7.32421875,-40.52734375,31.73828125
1,1734117337011.0312,-10.25390625,-4.8828125,-40.0390625,19.53125
2,1734117337014.9375,-17.578125,-4.39453125,-32.2265625,22.94921875
3,1734117337018.8438,-18.5546875,-8.30078125,-34.66796875,9.27734375
4,1734117337022.75,-20.99609375,-15.13671875,-37.109375,34.1796875
5,1734117337026.6562,-20.01953125,-15.625,-29.296875,48.33984375
6,1734117337030.5625,-3.41796875,-18.06640625,-21.97265625,50.29296875
7,1734117337034.4688,-3.90625,-21.97265625,-26.85546875,52.24609375
8,1734117337038.375,-20.01953125,-18.5546875,-30.76171875,39.0625
9,1734117337042.2812,-13.18359375,-10.25390625,-29.296875,42.96875
10,1734117337046.1875,-9.765625,-19.04296875,-35.15625,46.875
11,1734117337050.0938,-20.01953125,-20.01953125,-37.59765625,47.8515625
0,1734117337054,-13.671875,-12.20703125,-34.66796875,40.0390625
1,1734117337057.9062,-0.9765625,-13.671875,-35.64453125,41.50390625
2,1734117337061.8125,7.8125,-7.32421875,-38.0859375,41.50390625
3,1734117337065.7188,3.41796875,-7.32421875,-37.109375,24.4140625
4,1734117337069.625,4.8828125,-8.7890625,-44.43359375,17.578125
5,1734117337073.5312,9.27734375,-7.32421875,-47.36328125,24.90234375
6,1734117337077.4375,0,-13.671875,-41.015625,38.57421875
7,1734117337081.3438,-4.39453125,-17.578125,-36.62109375,33.69140625
8,1734117337085.25,-9.765625,-19.53125,-39.0625,-19.53125
9,1734117337089.1562,8.30078125,-16.6015625,-31.73828125,-5.859375
10,1734117337093.0625,26.85546875,-11.23046875,-21.484375,59.5703125
11,1734117337096.9688,10.7421875,-7.8125,-24.4140625,41.50390625
0,1734117337100.875,1.46484375,-12.20703125,-27.34375,26.3671875
1,1734117337104.7812,10.25390625,-21.97265625,-27.34375,30.76171875
2,1734117337108.6875,10.7421875,-29.78515625,-24.4140625,30.76171875
3,1734117337112.5938,4.39453125,-23.92578125,-23.92578125,18.06640625
4,1734117337116.5,0,-12.6953125,-22.94921875,21.484375
5,1734117337120.4062,-19.04296875,-12.20703125,-21.97265625,41.9921875
6,1734117337124.3125,-7.8125,-12.6953125,-29.296875,29.78515625
7,1734117337128.2188,-7.8125,-17.08984375,-31.73828125,13.18359375
8,1734117337132.125,10.7421875,-14.16015625,-30.76171875,12.6953125
9,1734117337136.0312,18.5546875,-8.7890625,-32.2265625,14.16015625
10,1734117337139.9375,-1.953125,-14.16015625,-32.2265625,25.390625
11,1734117337143.8438,-5.859375,-19.04296875,-32.2265625,24.90234375
0,1734117337147.75,8.30078125,-20.99609375,-34.1796875,23.4375
1,1734117337151.6562,0.9765625,-20.5078125,-37.109375,19.53125
2,1734117337155.5625,-6.34765625,-20.5078125,-35.15625,23.92578125
3,1734117337159.4688,9.27734375,-21.97265625,-33.69140625,28.3203125
4,1734117337163.375,14.16015625,-21.97265625,-30.76171875,32.71484375
5,1734117337167.2812,24.90234375,-17.08984375,-22.94921875,62.5
6,1734117337171.1875,20.5078125,-21.484375,-22.94921875,58.59375
7,1734117337175.0938,20.5078125,-30.2734375,-30.76171875,3.41796875
8,1734117337179,33.69140625,-20.5078125,-31.73828125,10.25390625
9,1734117337182.9062,36.1328125,-15.625,-33.203125,43.45703125
10,1734117337186.8125,26.3671875,-13.18359375,-48.828125,20.01953125
11,1734117337190.7188,11.23046875,-14.6484375,-43.45703125,17.08984375
0,1734117337194.625,5.859375,-18.5546875,-30.76171875,17.08984375
1,1734117337198.5312,12.6953125,-23.4375,-37.59765625,6.8359375
2,1734117337202.4375,1.953125,-27.34375,-37.109375,15.13671875
3,1734117337206.3438,-1.953125,-22.4609375,-32.2265625,29.296875
4,1734117337210.25,4.39453125,-23.92578125,-31.73828125,16.11328125
5,1734117337214.1562,-21.484375,-25.87890625,-33.69140625,1.953125
6,1734117337218.0625,-29.296875,-30.2734375,-31.73828125,20.99609375
7,1734117337221.9688,-5.37109375,-35.15625,-22.94921875,22.4609375
8,1734117337225.875,0.48828125,-31.73828125,-20.99609375,36.1328125
9,1734117337229.7812,0,-16.11328125,-30.2734375,32.2265625
10,1734117337233.6875,-6.34765625,-14.6484375,-36.62109375,-2.44140625
11,1734117337237.5938,-3.90625,-21.484375,-33.69140625,27.34375
0,1734117337241.5,8.30078125,-17.578125,-37.59765625,23.92578125
1,1734117337245.4062,-2.9296875,-13.671875,-41.50390625,-16.6015625
2,1734117337249.3125,0,-15.625,-46.875,-7.32421875
3,1734117337253.2188,0.9765625,-10.25390625,-46.875,2.9296875
4,1734117337257.125,7.32421875,-4.39453125,-39.55078125,7.8125
5,1734117337261.0312,-4.8828125,-5.37109375,-34.66796875,20.5078125
6,1734117337264.9375,-3.41796875,-9.27734375,-37.59765625,27.83203125
7,1734117337268.8438,15.13671875,-13.18359375,-39.55078125,20.01953125
8,1734117337272.75,27.83203125,-9.27734375,-32.2265625,24.90234375
9,1734117337276.6562,32.71484375,-13.18359375,-33.69140625,31.73828125
10,1734117337280.5625,11.71875,-19.04296875,-40.52734375,28.3203125
11,1734117337284.4688,-7.32421875,-25.87890625,-36.1328125,23.4375
0,1734117337288.375,-22.4609375,-44.921875,-28.80859375,25.390625
1,1734117337292.2812,-0.48828125,-34.66796875,-28.3203125,34.66796875
2,1734117337296.1875,7.8125,-15.13671875,-25.87890625,32.71484375
3,1734117337300.0938,-12.20703125,-14.6484375,-31.73828125,5.859375
4,1734117337304,-15.13671875,-12.20703125,-38.0859375,10.25390625
5,1734117337307.9062,-25.390625,-13.18359375,-32.71484375,48.33984375
6,1734117337311.8125,-20.99609375,-19.53125,-31.73828125,12.6953125
7,1734117337315.7188,0.9765625,-18.06640625,-30.76171875,10.7421875
8,1734117337319.625,-7.32421875,-14.6484375,-29.296875,40.52734375
9,1734117337323.5312,-13.671875,-18.5546875,-30.76171875,24.4140625
10,1734117337327.4375,-5.859375,-21.97265625,-32.2265625,35.15625
11,1734117337331.3438,0,-21.484375,-34.66796875,18.5546875
0,1734117337335.25,-6.8359375,-22.4609375,-41.9921875,23.4375
1,1734117337339.1562,-15.625,-18.06640625,-41.50390625,23.92578125
2,1734117337343.0625,-6.34765625,-19.04296875,-32.71484375,6.8359375
3,1734117337346.9688,2.9296875,-32.71484375,-32.71484375,12.20703125
4,1734117337350.875,-0.9765625,-34.1796875,-36.1328125,-1.953125
5,1734117337354.7812,2.9296875,-32.71484375,-32.71484375,17.578125
6,1734117337358.6875,5.37109375,-29.296875,-23.92578125,26.85546875
7,1734117337362.5938,-7.32421875,-21.484375,-28.3203125,17.578125
8,1734117337366.5,-3.90625,-17.578125,-40.52734375,0
9,1734117337370.4062,0.9765625,-18.06640625,-42.48046875,8.7890625
10,1734117337374.3125,-7.8125,-19.04296875,-33.203125,27.34375
11,1734117337378.2188,2.9296875,-17.08984375,-37.59765625,21.97265625
0,1734117337382.125,-3.90625,-20.5078125,-47.36328125,31.25
1,1734117337386.0312,-20.99609375,-24.90234375,-39.0625,20.01953125
2,1734117337389.9375,-13.18359375,-24.90234375,-33.69140625,17.578125
3,1734117337393.8438,0.9765625,-36.1328125,-43.45703125,17.08984375
4,1734117337397.75,9.765625,-28.80859375,-45.41015625,8.30078125
5,1734117337401.6562,20.99609375,-3.90625,-44.921875,8.7890625
6,1734117337405.5625,6.34765625,-10.7421875,-45.41015625,38.0859375
7,1734117337409.4688,-5.37109375,-16.6015625,-41.9921875,29.296875
8,1734117337413.375,-1.46484375,-14.6484375,-41.015625,9.765625
9,1734117337417.2812,2.9296875,-18.06640625,-39.0625,9.765625
10,1734117337421.1875,10.7421875,-25.390625,-37.59765625,6.34765625
11,1734117337425.0938,11.71875,-25.87890625,-39.55078125,18.06640625
0,1734117337429,7.32421875,-21.97265625,-38.57421875,20.5078125
1,1734117337432.9062,14.6484375,-17.08984375,-34.1796875,25.390625
2,1734117337436.8125,20.99609375,-13.18359375,-31.73828125,40.0390625
3,1734117337440.7188,2.44140625,-15.625,-35.15625,33.203125
4,1734117337444.625,-1.953125,-14.16015625,-39.0625,30.76171875
5,1734117337448.5312,-2.44140625,-15.13671875,-37.109375,47.8515625
6,1734117337452.4375,16.6015625,-16.6015625,-35.64453125,50.78125
7,1734117337456.3438,18.06640625,-12.6953125,-39.55078125,41.015625
8,1734117337460.25,-15.625,-19.04296875,-45.8984375,22.94921875
9,1734117337464.1562,2.44140625,-17.08984375,-42.48046875,21.97265625
10,1734117337468.0625,10.25390625,-15.13671875,-38.0859375,38.0859375
11,1734117337471.9688,-15.13671875,-20.5078125,-41.9921875,8.30078125
0,1734117337475.875,-22.4609375,-22.94921875,-41.50390625,1.953125
1,1734117337479.7812,-29.296875,-27.83203125,-48.828125,12.6953125
2,1734117337483.6875,-14.6484375,-26.85546875,-47.8515625,15.625
3,1734117337487.5938,-2.9296875,-26.85546875,-42.96875,35.64453125
4,1734117337491.5,-0.9765625,-29.296875,-40.52734375,36.1328125
5,1734117337495.4062,1.46484375,-25.390625,-34.66796875,35.15625
6,1734117337499.3125,-12.6953125,-28.3203125,-36.1328125,18.5546875
7,1734117337503.2188,-9.27734375,-33.69140625,-41.9921875,2.9296875
8,1734117337507.125,6.34765625,-33.69140625,-46.38671875,9.27734375
9,1734117337511.0312,15.625,-35.64453125,-43.9453125,31.25
10,1734117337514.9375,9.27734375,-28.80859375,-43.9453125,41.015625
11,1734117337518.8438,-1.953125,-19.53125,-48.828125,18.06640625
0,1734117337522.75,4.8828125,-15.13671875,-49.31640625,5.859375
1,1734117337526.6562,16.11328125,-11.23046875,-47.8515625,21.484375
2,1734117337530.5625,22.4609375,-15.625,-46.38671875,31.25
3,1734117337534.4688,19.53125,-19.04296875,-37.109375,5.37109375
4,1734117337538.375,19.53125,-16.6015625,-30.2734375,31.25
5,1734117337542.2812,8.7890625,-16.11328125,-31.25,41.015625
6,1734117337546.1875,-0.9765625,-18.06640625,-32.2265625,25.390625
7,1734117337550.0938,-14.6484375,-16.6015625,-38.0859375,20.5078125
8,1734117337554,-26.85546875,-19.04296875,-36.62109375,22.94921875
9,1734117337557.9062,-9.765625,-25.87890625,-33.69140625,53.22265625
10,1734117337561.8125,3.41796875,-32.2265625,-39.55078125,33.203125
11,1734117337565.7188,-3.90625,-28.3203125,-38.57421875,26.85546875
0,1734117337569.625,-6.34765625,-24.90234375,-37.59765625,29.296875
1,1734117337573.5312,-7.8125,-27.83203125,-41.015625,20.01953125
2,1734117337577.4375,4.8828125,-27.83203125,-35.15625,6.34765625
3,1734117337581.3438,6.8359375,-23.4375,-35.64453125,7.8125
4,1734117337585.25,-6.8359375,-22.4609375,-36.62109375,32.71484375
5,1734117337589.1562,-13.18359375,-21.484375,-30.76171875,38.0859375
6,1734117337593.0625,-12.6953125,-20.99609375,-28.3203125,36.62109375
7,1734117337596.9688,-2.44140625,-16.6015625,-28.3203125,31.25
8,1734117337600.875,-1.953125,-20.99609375,-29.296875,14.6484375
9,1734117337604.7812,-4.8828125,-31.73828125,-31.25,9.765625
10,1734117337608.6875,-4.8828125,-22.94921875,-31.25,7.32421875
11,1734117337612.5938,-6.34765625,-14.6484375,-28.3203125,-0.9765625
0,1734117337616.5,-22.94921875,-13.671875,-26.85546875,33.203125
1,1734117337620.4062,-23.92578125,-15.13671875,-30.76171875,40.0390625
2,1734117337624.3125,5.37109375,-16.11328125,-30.2734375,22.4609375
3,1734117337628.2188,19.53125,-14.6484375,-24.90234375,34.1796875
4,1734117337632.125,1.953125,-15.13671875,-26.85546875,22.4609375
5,1734117337636.0312,4.8828125,-14.16015625,-34.66796875,5.859375
6,1734117337639.9375,18.06640625,-14.16015625,-33.69140625,50.29296875
7,1734117337643.8438,5.859375,-17.08984375,-31.73828125,50.29296875
8,1734117337647.75,8.30078125,-15.625,-35.15625,46.875
9,1734117337651.6562,4.39453125,-19.04296875,-40.0390625,51.7578125
10,1734117337655.5625,-8.7890625,-20.99609375,-37.59765625,42.48046875
11,1734117337659.4688,-23.92578125,-26.3671875,-32.71484375,32.2265625
0,1734117337663.375,-15.13671875,-36.1328125,-31.25,29.78515625
1,1734117337667.2812,0.9765625,-24.90234375,-32.71484375,21.97265625
2,1734117337671.1875,-9.765625,-12.20703125,-37.59765625,7.8125
3,1734117337675.0938,-14.16015625,-11.71875,-34.1796875,3.90625
4,1734117337679,-3.41796875,-6.8359375,-27.34375,8.7890625
5,1734117337682.9062,0,-8.30078125,-23.92578125,19.53125
6,1734117337686.8125,-11.71875,-7.8125,-26.85546875,7.32421875
7,1734117337690.7188,5.859375,-2.44140625,-26.85546875,14.16015625
8,1734117337694.625,4.8828125,-3.41796875,-23.4375,11.23046875
9,1734117337698.5312,-17.578125,-9.27734375,-24.90234375,1.953125
10,1734117337702.4375,-15.13671875,-14.16015625,-27.34375,23.92578125
11,1734117337706.3438,-0.48828125,-14.6484375,-29.78515625,16.11328125
0,1734117337710.25,0.48828125,-12.20703125,-30.2734375,-12.6953125
1,1734117337714.1562,1.46484375,-18.5546875,-30.2734375,-0.48828125
2,1734117337718.0625,5.859375,-24.4140625,-31.25,23.92578125
3,1734117337721.9688,11.71875,-12.6953125,-27.83203125,37.109375
4,1734117337725.875,14.16015625,-4.39453125,-27.83203125,39.0625
5,1734117337729.7812,18.5546875,-4.39453125,-27.34375,32.2265625
6,1734117337733.6875,28.3203125,-10.7421875,-25.390625,40.52734375
7,1734117337737.5938,21.97265625,-11.23046875,-27.34375,43.9453125
8,1734117337741.5,11.23046875,-11.71875,-31.25,35.15625
9,1734117337745.4062,-17.08984375,-17.08984375,-35.15625,35.15625
10,1734117337749.3125,-9.765625,-22.4609375,-35.64453125,47.8515625
11,1734117337753.2188,18.06640625,-21.484375,-33.203125,42.48046875
0,1734117337757.125,14.16015625,-14.6484375,-35.15625,6.34765625
1,1734117337761.0312,7.8125,-13.18359375,-33.69140625,6.34765625
2,1734117337764.9375,-0.9765625,-11.23046875,-31.25,46.875
3,1734117337768.8438,-2.9296875,-16.6015625,-34.1796875,44.43359375
4,1734117337772.75,-0.9765625,-20.01953125,-34.66796875,39.0625
5,1734117337776.6562,10.7421875,-14.6484375,-32.2265625,20.99609375
6,1734117337780.5625,0,-12.20703125,-25.390625,-1.953125
7,1734117337784.4688,-19.04296875,-13.18359375,-28.80859375,10.7421875
8,1734117337788.375,-8.7890625,-11.23046875,-36.62109375,5.37109375
9,1734117337792.2812,4.39453125,-17.578125,-35.64453125,2.9296875
10,1734117337796.1875,-12.20703125,-27.34375,-33.203125,-3.41796875
11,1734117337800.0938,-9.27734375,-22.94921875,-36.62109375,-17.08984375
0,1734117337804,-10.7421875,-14.6484375,-36.1328125,-23.4375
1,1734117337807.9062,-16.11328125,-18.5546875,-32.71484375,4.39453125
2,1734117337811.8125,0,-26.3671875,-33.69140625,14.16015625
3,1734117337815.7188,9.765625,-20.5078125,-31.25,11.23046875
4,1734117337819.625,22.94921875,-13.18359375,-29.296875,13.18359375
5,1734117337823.5312,24.4140625,-7.32421875,-28.80859375,35.15625
6,1734117337827.4375,3.90625,-1.953125,-26.3671875,35.64453125
7,1734117337831.3438,-13.671875,-5.859375,-31.25,17.578125
8,1734117337835.25,0,-8.30078125,-33.203125,30.76171875
9,1734117337839.1562,11.71875,-12.6953125,-28.80859375,37.59765625
10,1734117337843.0625,16.6015625,-21.97265625,-23.92578125,41.015625
11,1734117337846.9688,6.8359375,-10.7421875,-30.2734375,23.4375
0,1734117337850.875,-0.9765625,0.48828125,-37.109375,2.44140625
1,1734117337854.7812,-3.90625,-2.9296875,-38.57421875,-0.48828125
2,1734117337858.6875,-20.01953125,-14.6484375,-36.1328125,-0.48828125
3,1734117337862.5938,-28.3203125,-18.5546875,-35.64453125,-15.13671875
4,1734117337866.5,-18.06640625,-16.6015625,-30.2734375,13.671875
5,1734117337870.4062,-9.765625,-12.6953125,-21.97265625,20.5078125
6,1734117337874.3125,0.9765625,-19.53125,-31.25,19.04296875
7,1734117337878.2188,-7.32421875,-23.92578125,-37.109375,23.92578125
8,1734117337882.125,-9.765625,-11.23046875,-31.25,6.34765625
9,1734117337886.0312,-7.32421875,-8.30078125,-36.1328125,34.66796875
10,1734117337889.9375,16.6015625,0,-43.45703125,52.734375
11,1734117337893.8438,13.671875,-0.9765625,-41.9921875,3.90625
0,1734117337897.75,4.8828125,-7.8125,-34.66796875,5.37109375
1,1734117337901.6562,1.46484375,-5.859375,-29.78515625,52.734375
2,1734117337905.5625,-7.32421875,-11.23046875,-32.71484375,27.83203125
3,1734117337909.4688,5.859375,-16.11328125,-36.62109375,18.5546875
4,1734117337913.375,7.32421875,-16.6015625,-35.64453125,35.15625
5,1734117337917.2812,8.30078125,-14.16015625,-36.62109375,20.5078125
6,1734117337921.1875,23.4375,-7.32421875,-37.59765625,14.6484375
7,1734117337925.0938,4.8828125,-7.32421875,-38.0859375,34.1796875
8,1734117337929,4.8828125,-17.08984375,-41.50390625,39.55078125
9,1734117337932.9062,12.20703125,-17.08984375,-40.52734375,33.69140625
10,1734117337936.8125,-12.6953125,-12.6953125,-39.55078125,20.5078125
11,1734117337940.7188,6.34765625,-16.6015625,-41.50390625,11.23046875
0,1734117337944.625,24.4140625,-14.6484375,-40.52734375,20.01953125
1,1734117337948.5312,2.9296875,-12.6953125,-42.48046875,2.9296875
2,1734117337952.4375,-17.578125,-26.3671875,-48.33984375,15.13671875
3,1734117337956.3438,0.48828125,-28.3203125,-41.9921875,47.8515625
4,1734117337960.25,18.06640625,-14.6484375,-39.0625,41.50390625
5,1734117337964.1562,-5.37109375,-13.671875,-42.48046875,26.3671875
6,1734117337968.0625,-11.23046875,-17.578125,-41.50390625,29.296875
7,1734117337971.9688,0,-15.13671875,-37.109375,20.99609375
8,1734117337975.875,-0.48828125,-15.13671875,-34.66796875,4.39453125
9,1734117337979.7812,11.23046875,-16.11328125,-37.59765625,25.87890625
10,1734117337983.6875,2.9296875,-24.4140625,-36.62109375,36.62109375
11,1734117337987.5938,-20.01953125,-35.15625,-32.2265625,28.80859375
0,1734117337991.5,-12.20703125,-24.4140625,-33.69140625,29.78515625
1,1734117337995.4062,-8.7890625,-20.99609375,-39.55078125,28.3203125
2,1734117337999.3125,-10.25390625,-26.3671875,-33.203125,31.25
3,1734117338003.2188,13.671875,-20.01953125,-22.94921875,42.96875
4,1734117338007.125,6.8359375,-21.484375,-28.3203125,31.25
5,1734117338011.0312,-8.30078125,-25.87890625,-33.69140625,19.04296875
6,1734117338014.9375,-0.9765625,-17.578125,-29.78515625,41.9921875
7,1734117338018.8438,16.11328125,-16.11328125,-24.4140625,48.33984375
8,1734117338022.75,-9.765625,-20.5078125,-30.2734375,-1.953125
9,1734117338026.6562,-23.4375,-14.16015625,-41.015625,-6.8359375
10,1734117338030.5625,-0.9765625,-14.6484375,-38.57421875,32.71484375
11,1734117338034.4688,10.25390625,-27.34375,-35.15625,16.6015625
0,1734117338038.375,-3.41796875,-27.34375,-37.59765625,6.8359375
1,1734117338042.2812,-18.5546875,-21.97265625,-34.66796875,20.5078125
2,1734117338046.1875,20.99609375,-21.484375,-26.85546875,55.17578125
3,1734117338050.0938,45.8984375,-13.671875,-28.3203125,58.59375
4,1734117338054,17.578125,-8.7890625,-36.1328125,12.20703125
5,1734117338057.9062,5.859375,-9.27734375,-36.1328125,11.71875
6,1734117338061.8125,12.20703125,-10.7421875,-35.64453125,37.59765625
7,1734117338065.7188,13.18359375,-8.7890625,-34.66796875,44.921875
8,1734117338069.625,3.41796875,-14.6484375,-37.59765625,30.2734375
9,1734117338073.5312,-11.71875,-30.2734375,-41.9921875,6.8359375
10,1734117338077.4375,-0.9765625,-35.15625,-34.1796875,16.6015625
11,1734117338081.3438,-5.859375,-31.73828125,-35.15625,-1.46484375
0,1734117338085.25,-22.4609375,-24.4140625,-45.41015625,-12.20703125
1,1734117338089.1562,-24.4140625,-11.23046875,-41.9921875,38.57421875
2,1734117338093.0625,-12.6953125,-17.08984375,-37.109375,53.7109375
3,1734117338096.9688,0.9765625,-24.4140625,-34.1796875,28.3203125
4,1734117338100.875,-2.44140625,-12.6953125,-32.71484375,18.5546875
5,1734117338104.7812,6.34765625,-8.7890625,-34.66796875,16.6015625
6,1734117338108.6875,-3.90625,-16.11328125,-33.203125,24.4140625
7,1734117338112.5938,-20.01953125,-15.625,-28.3203125,42.96875
8,1734117338116.5,-4.8828125,-13.18359375,-30.2734375,21.97265625
9,1734117338120.4062,5.37109375,-23.4375,-34.66796875,11.71875
10,1734117338124.3125,2.44140625,-27.34375,-31.25,-4.8828125
11,1734117338128.2188,4.8828125,-20.01953125,-30.76171875,8.30078125
0,1734117338132.125,-2.44140625,-20.5078125,-35.15625,31.73828125
1,1734117338136.0312,-6.8359375,-22.4609375,-32.2265625,28.3203125
2,1734117338139.9375,-0.48828125,-22.4609375,-29.78515625,27.83203125
3,1734117338143.8438,-1.953125,-19.53125,-31.73828125,20.01953125
4,1734117338147.75,5.859375,-21.97265625,-31.25,22.94921875
5,1734117338151.6562,11.71875,-20.99609375,-31.73828125,25.87890625
6,1734117338155.5625,-13.18359375,-10.7421875,-30.2734375,27.34375
7,1734117338159.4688,-30.2734375,-11.71875,-30.76171875,20.99609375
8,1734117338163.375,-14.6484375,-21.484375,-37.109375,22.4609375
9,1734117338167.2812,-9.765625,-22.4609375,-35.64453125,35.15625
10,1734117338171.1875,-16.11328125,-20.01953125,-31.25,34.66796875
11,1734117338175.0938,-11.23046875,-17.08984375,-31.25,21.97265625
0,1734117338179,-4.8828125,-11.23046875,-33.69140625,7.32421875
1,1734117338182.9062,-4.8828125,-12.20703125,-34.1796875,-14.6484375
2,1734117338186.8125,-12.20703125,-16.6015625,-32.2265625,-7.8125
3,1734117338190.7188,-22.94921875,-18.06640625,-42.48046875,14.16015625
4,1734117338194.625,2.9296875,-21.484375,-45.41015625,12.6953125
5,1734117338198.5312,0.9765625,-28.80859375,-36.62109375,13.671875
6,1734117338202.4375,-6.34765625,-28.80859375,-33.69140625,17.08984375
7,1734117338206.3438,-1.46484375,-24.90234375,-43.45703125,3.90625
8,1734117338210.25,-9.765625,-27.83203125,-48.33984375,12.20703125
9,1734117338214.1562,-23.4375,-20.99609375,-39.0625,13.18359375
10,1734117338218.0625,-25.87890625,-11.71875,-40.52734375,0
11,1734117338221.9688,-16.11328125,-9.27734375,-43.9453125,16.11328125
0,1734117338225.875,-34.1796875,-14.16015625,-39.0625,14.16015625
1,1734117338229.7812,-25.390625,-21.484375,-35.15625,27.34375
2,1734117338233.6875,-2.44140625,-25.390625,-36.1328125,45.8984375
3,1734117338237.5938,-5.37109375,-29.78515625,-38.0859375,21.97265625
4,1734117338241.5,-5.859375,-36.62109375,-35.15625,15.13671875
5,1734117338245.4062,9.765625,-39.55078125,-37.109375,24.90234375
6,1734117338249.3125,-1.46484375,-35.15625,-38.57421875,26.3671875
7,1734117338253.2188,8.7890625,-32.2265625,-36.62109375,-6.34765625
8,1734117338257.125,29.78515625,-29.296875,-37.109375,-6.8359375
9,1734117338261.0312,15.13671875,-20.01953125,-33.203125,32.71484375
10,1734117338264.9375,25.390625,-13.671875,-35.15625,32.71484375
11,1734117338268.8438,13.671875,-14.16015625,-41.9921875,32.71484375
0,1734117338272.75,-10.25390625,-12.20703125,-38.0859375,31.73828125
1,1734117338276.6562,-8.7890625,-20.99609375,-32.71484375,32.2265625
2,1734117338280.5625,-4.8828125,-29.78515625,-35.15625,51.7578125
3,1734117338284.4688,1.953125,-31.25,-40.0390625,45.8984375
4,1734117338288.375,-2.9296875,-26.85546875,-39.55078125,32.71484375
5,1734117338292.2812,-4.8828125,-28.80859375,-33.203125,18.5546875
6,1734117338296.1875,-8.30078125,-34.66796875,-38.0859375,-2.9296875
7,1734117338300.0938,-13.18359375,-24.90234375,-43.9453125,18.06640625
8,1734117338304,-8.30078125,-18.5546875,-40.52734375,25.87890625
9,1734117338307.9062,0,-13.18359375,-35.15625,17.578125
10,1734117338311.8125,-12.20703125,-11.71875,-45.8984375,15.13671875
11,1734117338315.7188,3.90625,-13.18359375,-52.734375,5.37109375
0,1734117338319.625,4.8828125,-16.11328125,-45.41015625,14.6484375
1,1734117338323.5312,-4.8828125,-16.6015625,-48.33984375,23.4375
2,1734117338327.4375,-12.6953125,-16.11328125,-54.19921875,14.6484375
3,1734117338331.3438,-10.25390625,-16.11328125,-54.19921875,13.671875
4,1734117338335.25,1.46484375,-17.08984375,-53.22265625,7.8125
5,1734117338339.1562,-8.30078125,-24.90234375,-52.24609375,12.20703125
6,1734117338343.0625,-8.30078125,-27.34375,-51.26953125,13.671875
7,1734117338346.9688,-31.73828125,-29.296875,-49.8046875,18.5546875
8,1734117338350.875,-26.3671875,-30.76171875,-43.45703125,31.73828125
9,1734117338354.7812,-6.8359375,-25.87890625,-39.55078125,23.92578125
10,1734117338358.6875,-11.71875,-25.390625,-44.43359375,-21.484375
11,1734117338362.5938,-8.30078125,-26.3671875,-44.921875,-16.6015625
0,1734117338366.5,-2.9296875,-20.5078125,-41.9921875,14.16015625
1,1734117338370.4062,14.6484375,-14.16015625,-41.9921875,11.71875
2,1734117338374.3125,0,-30.2734375,-46.38671875,3.41796875
3,1734117338378.2188,0.48828125,-36.62109375,-49.31640625,17.578125
4,1734117338382.125,11.71875,-21.97265625,-51.7578125,25.390625
5,1734117338386.0312,-4.8828125,-16.11328125,-49.8046875,15.625
6,1734117338389.9375,-15.625,-10.7421875,-45.8984375,18.06640625
7,1734117338393.8438,0.48828125,-14.6484375,-41.50390625,19.04296875
8,1734117338397.75,5.37109375,-22.94921875,-35.15625,26.85546875
9,1734117338401.6562,-10.25390625,-22.94921875,-39.55078125,22.4609375
10,1734117338405.5625,-11.23046875,-18.06640625,-34.66796875,20.5078125
11,1734117338409.4688,3.41796875,-14.6484375,-29.78515625,39.55078125
0,1734117338413.375,19.04296875,-13.18359375,-29.296875,39.55078125
1,1734117338417.2812,25.87890625,-12.6953125,-22.94921875,41.9921875
2,1734117338421.1875,15.625,-15.625,-27.34375,50.29296875
3,1734117338425.0938,14.16015625,-11.71875,-36.62109375,48.33984375
4,1734117338429,27.83203125,-6.8359375,-33.203125,28.80859375
5,1734117338432.9062,22.94921875,-12.6953125,-31.25,29.78515625
6,1734117338436.8125,15.625,-15.13671875,-27.34375,26.85546875
7,1734117338440.7188,-2.9296875,-10.25390625,-21.97265625,17.578125
8,1734117338444.625,-29.78515625,-10.25390625,-34.1796875,8.7890625
9,1734117338448.5312,-1.46484375,-27.34375,-40.0390625,13.18359375
10,1734117338452.4375,25.87890625,-31.25,-35.15625,31.73828125
11,1734117338456.3438,12.20703125,-9.27734375,-36.62109375,23.92578125
0,1734117338460.25,6.8359375,1.953125,-39.55078125,14.16015625
1,1734117338464.1562,12.20703125,-4.8828125,-39.55078125,31.25
2,1734117338468.0625,33.203125,-5.37109375,-39.0625,40.52734375
3,1734117338471.9688,31.25,-0.48828125,-40.0390625,37.109375
4,1734117338475.875,18.5546875,0.9765625,-32.71484375,25.390625
5,1734117338479.7812,21.484375,1.46484375,-28.80859375,38.57421875
6,1734117338483.6875,24.90234375,-5.37109375,-28.3203125,52.734375
7,1734117338487.5938,27.83203125,-7.32421875,-21.484375,48.33984375
8,1734117338491.5,23.4375,-7.32421875,-27.34375,51.7578125
9,1734117338495.4062,24.4140625,-10.25390625,-34.66796875,41.50390625
10,1734117338499.3125,30.2734375,-12.20703125,-33.69140625,43.45703125
11,1734117338503.2188,37.59765625,-14.16015625,-37.109375,36.1328125
0,1734117338507.125,20.01953125,-13.18359375,-38.0859375,32.2265625
1,1734117338511.0312,-0.9765625,-14.16015625,-38.0859375,22.4609375
2,1734117338514.9375,3.41796875,-13.671875,-38.57421875,19.53125
3,1734117338518.8438,2.9296875,-9.765625,-39.55078125,27.34375
4,1734117338522.75,10.7421875,-8.30078125,-36.1328125,27.83203125
5,1734117338526.6562,19.53125,-2.9296875,-32.71484375,41.015625
6,1734117338530.5625,17.578125,-5.37109375,-34.1796875,27.34375
7,1734117338534.4688,20.01953125,-9.27734375,-37.59765625,2.9296875
8,1734117338538.375,1.953125,-8.30078125,-43.9453125,-6.34765625
9,1734117338542.2812,22.94921875,-9.765625,-37.59765625,1.46484375
10,1734117338546.1875,20.99609375,-13.671875,-30.2734375,2.9296875
11,1734117338550.0938,7.32421875,-11.23046875,-30.2734375,10.25390625
0,1734117338554,19.53125,-10.7421875,-33.203125,15.13671875
1,1734117338557.9062,17.08984375,-15.13671875,-31.73828125,15.625
2,1734117338561.8125,13.671875,-11.23046875,-32.2265625,17.578125
3,1734117338565.7188,17.578125,-13.18359375,-35.64453125,17.08984375
4,1734117338569.625,3.90625,-23.4375,-30.76171875,26.3671875
5,1734117338573.5312,7.8125,-20.01953125,-26.3671875,43.45703125
6,1734117338577.4375,20.5078125,-10.25390625,-25.87890625,36.1328125
7,1734117338581.3438,-7.32421875,-12.20703125,-31.25,8.30078125
8,1734117338585.25,-16.6015625,-23.92578125,-30.76171875,32.71484375
9,1734117338589.1562,9.765625,-26.3671875,-31.73828125,64.453125
10,1734117338593.0625,-2.44140625,-18.06640625,-33.203125,51.26953125
11,1734117338596.9688,-2.9296875,-21.484375,-41.015625,12.6953125
0,1734117338600.875,8.30078125,-25.87890625,-42.96875,18.06640625
1,1734117338604.7812,-7.32421875,-18.5546875,-36.62109375,31.73828125
2,1734117338608.6875,1.46484375,-10.25390625,-36.1328125,19.04296875
3,1734117338612.5938,-2.9296875,-7.8125,-32.2265625,31.73828125
4,1734117338616.5,-7.32421875,-7.8125,-32.2265625,33.69140625
5,1734117338620.4062,-4.8828125,-3.41796875,-35.15625,19.04296875
6,1734117338624.3125,-3.41796875,-7.8125,-32.71484375,22.94921875
7,1734117338628.2188,10.25390625,-14.6484375,-32.2265625,32.71484375
8,1734117338632.125,10.7421875,-13.18359375,-32.71484375,23.92578125
9,1734117338636.0312,10.7421875,-14.16015625,-32.71484375,7.8125
10,1734117338639.9375,12.20703125,-11.23046875,-39.0625,13.671875
11,1734117338643.8438,-16.11328125,-8.30078125,-39.55078125,24.90234375
0,1734117338647.75,-19.53125,-19.04296875,-33.203125,19.04296875
1,1734117338651.6562,-9.27734375,-28.3203125,-34.66796875,29.78515625
2,1734117338655.5625,-13.18359375,-20.01953125,-39.0625,1.46484375
3,1734117338659.4688,-13.671875,-15.625,-41.50390625,-25.87890625
4,1734117338663.375,-11.71875,-20.01953125,-37.59765625,18.5546875
5,1734117338667.2812,-5.859375,-19.53125,-36.1328125,23.4375
6,1734117338671.1875,-2.44140625,-23.92578125,-36.62109375,21.97265625
7,1734117338675.0938,-22.4609375,-34.1796875,-33.203125,24.4140625
8,1734117338679,-7.32421875,-30.76171875,-34.1796875,24.90234375
9,1734117338682.9062,-5.859375,-26.85546875,-34.1796875,30.76171875
10,1734117338686.8125,-17.578125,-25.390625,-40.52734375,17.578125
11,1734117338690.7188,-20.99609375,-29.78515625,-44.43359375,11.71875
0,1734117338694.625,-12.6953125,-36.1328125,-37.59765625,20.5078125
1,1734117338698.5312,-14.16015625,-26.3671875,-34.66796875,14.6484375
2,1734117338702.4375,-30.2734375,-19.04296875,-38.57421875,10.7421875
3,1734117338706.3438,-16.6015625,-25.87890625,-35.64453125,-4.8828125
4,1734117338710.25,-12.6953125,-32.2265625,-39.55078125,-9.765625
5,1734117338714.1562,-8.7890625,-27.83203125,-44.921875,10.25390625
6,1734117338718.0625,-16.11328125,-30.76171875,-42.48046875,-14.16015625
7,1734117338721.9688,-23.4375,-33.203125,-43.45703125,-45.41015625
8,1734117338725.875,-26.85546875,-27.34375,-43.45703125,-2.9296875
9,1734117338729.7812,-17.578125,-23.4375,-42.96875,12.20703125
10,1734117338733.6875,-8.30078125,-23.4375,-41.9921875,-6.34765625
11,1734117338737.5938,-2.9296875,-22.94921875,-41.015625,-1.953125
0,1734117338741.5,2.9296875,-21.484375,-45.41015625,-2.44140625
1,1734117338745.4062,-13.671875,-20.99609375,-49.31640625,2.44140625
2,1734117338749.3125,-5.859375,-22.94921875,-48.828125,1.46484375
3,1734117338753.2188,2.9296875,-23.92578125,-43.9453125,7.32421875
4,1734117338757.125,-18.06640625,-19.04296875,-37.109375,10.25390625
5,1734117338761.0312,-20.01953125,-17.578125,-35.64453125,0.9765625
6,1734117338764.9375,-14.6484375,-17.578125,-34.1796875,14.6484375
7,1734117338768.8438,-1.46484375,-21.484375,-34.1796875,13.671875
8,1734117338772.75,20.5078125,-21.97265625,-30.76171875,21.97265625
9,1734117338776.6562,-4.8828125,-23.92578125,-32.2265625,2.9296875
10,1734117338780.5625,-22.94921875,-31.73828125,-39.55078125,-8.30078125
11,1734117338784.4688,-9.27734375,-35.64453125,-38.57421875,24.90234375
0,1734117338788.375,-27.34375,-28.80859375,-32.71484375,18.5546875
1,1734117338792.2812,-19.04296875,-22.94921875,-38.0859375,2.9296875
2,1734117338796.1875,-14.6484375,-20.01953125,-41.50390625,15.13671875
3,1734117338800.0938,-14.6484375,-23.92578125,-37.59765625,22.4609375
4,1734117338804,-7.32421875,-27.83203125,-35.64453125,16.11328125
5,1734117338807.9062,-4.8828125,-22.4609375,-36.1328125,16.11328125
6,1734117338811.8125,7.8125,-20.5078125,-38.57421875,22.4609375
7,1734117338815.7188,8.30078125,-20.5078125,-34.66796875,25.390625
8,1734117338819.625,11.23046875,-18.06640625,-29.78515625,26.85546875
9,1734117338823.5312,-10.7421875,-20.01953125,-32.2265625,20.01953125
10,1734117338827.4375,-20.99609375,-24.4140625,-36.62109375,12.6953125
11,1734117338831.3438,5.859375,-26.85546875,-40.52734375,21.97265625
0,1734117338835.25,-10.25390625,-29.78515625,-46.875,12.20703125
1,1734117338839.1562,-12.6953125,-30.76171875,-44.43359375,17.08984375
2,1734117338843.0625,22.4609375,-26.85546875,-39.0625,32.71484375
3,1734117338846.9688,10.25390625,-23.92578125,-43.45703125,30.76171875
4,1734117338850.875,1.46484375,-25.390625,-43.9453125,32.2265625
5,1734117338854.7812,-2.44140625,-26.3671875,-42.96875,37.59765625
6,1734117338858.6875,-7.32421875,-25.390625,-37.109375,56.15234375
7,1734117338862.5938,21.97265625,-32.71484375,-29.296875,68.359375
8,1734117338866.5,20.99609375,-29.78515625,-34.66796875,43.45703125
9,1734117338870.4062,18.06640625,-19.53125,-38.0859375,24.90234375
10,1734117338874.3125,6.8359375,-20.01953125,-27.83203125,24.4140625
11,1734117338878.2188,-4.8828125,-25.390625,-23.92578125,32.71484375
0,1734117338882.125,-1.953125,-25.87890625,-27.34375,43.9453125
1,1734117338886.0312,0,-23.4375,-27.34375,45.8984375
2,1734117338889.9375,0.9765625,-20.5078125,-27.83203125,47.36328125
3,1734117338893.8438,0.48828125,-15.625,-26.3671875,43.9453125
4,1734117338897.75,-8.7890625,-16.6015625,-26.85546875,30.2734375
5,1734117338901.6562,-12.6953125,-20.5078125,-33.203125,30.76171875
6,1734117338905.5625,5.37109375,-21.97265625,-30.76171875,42.48046875
7,1734117338909.4688,0.9765625,-24.4140625,-38.57421875,32.71484375
8,1734117338913.375,-9.27734375,-27.34375,-52.734375,-1.46484375
9,1734117338917.2812,-23.92578125,-22.94921875,-45.8984375,7.8125
10,1734117338921.1875,-21.484375,-17.578125,-43.45703125,41.50390625
11,1734117338925.0938,3.90625,-17.08984375,-47.36328125,16.11328125
0,1734117338929,-8.7890625,-19.04296875,-44.43359375,-6.34765625
1,1734117338932.9062,-13.671875,-20.5078125,-42.48046875,16.6015625
2,1734117338936.8125,9.765625,-19.04296875,-38.57421875,34.1796875
3,1734117338940.7188,8.7890625,-18.5546875,-38.57421875,28.3203125
4,1734117338944.625,-14.16015625,-21.484375,-41.9921875,17.578125
5,1734117338948.5312,-10.25390625,-28.80859375,-38.0859375,12.6953125
6,1734117338952.4375,-12.20703125,-35.15625,-38.57421875,18.5546875
7,1734117338956.3438,-21.97265625,-34.1796875,-47.8515625,19.04296875
8,1734117338960.25,-9.27734375,-33.203125,-53.22265625,17.578125
9,1734117338964.1562,-0.48828125,-28.80859375,-49.31640625,15.625
10,1734117338968.0625,6.34765625,-26.3671875,-49.31640625,24.4140625
11,1734117338971.9688,-18.06640625,-38.0859375,-53.22265625,12.6953125
0,1734117338975.875,-25.87890625,-34.1796875,-48.828125,-7.8125
1,1734117338979.7812,-8.30078125,-25.390625,-44.921875,16.11328125
2,1734117338983.6875,-12.20703125,-25.87890625,-44.43359375,11.71875
3,1734117338987.5938,-19.53125,-21.484375,-40.52734375,-16.11328125
4,1734117338991.5,-23.92578125,-19.53125,-40.0390625,24.4140625
5,1734117338995.4062,-8.7890625,-21.484375,-41.9921875,30.2734375
6,1734117338999.3125,-12.6953125,-19.04296875,-42.48046875,21.97265625
7,1734117339003.2188,-34.1796875,-20.01953125,-44.921875,21.484375
8,1734117339007.125,-2.9296875,-18.06640625,-39.55078125,22.4609375
9,1734117339011.0312,8.30078125,-11.23046875,-31.73828125,31.73828125
10,1734117339014.9375,-11.71875,-18.5546875,-37.59765625,20.5078125
11,1734117339018.8438,-8.7890625,-25.390625,-41.50390625,5.37109375
0,1734117339022.75,-2.44140625,-21.484375,-35.15625,6.34765625
1,1734117339026.6562,-3.41796875,-16.6015625,-30.2734375,11.23046875
2,1734117339030.5625,-2.44140625,-26.85546875,-35.64453125,5.37109375
3,1734117339034.4688,4.39453125,-31.25,-38.57421875,14.16015625
4,1734117339038.375,-10.25390625,-17.08984375,-34.1796875,21.484375
5,1734117339042.2812,-9.765625,-13.671875,-34.66796875,24.90234375
6,1734117339046.1875,-1.953125,-14.6484375,-41.015625,22.4609375
7,1734117339050.0938,-18.5546875,-16.11328125,-43.45703125,12.20703125
8,1734117339054,-25.87890625,-13.671875,-36.62109375,-2.44140625
9,1734117339057.9062,-20.5078125,-14.6484375,-33.203125,13.18359375
10,1734117339061.8125,-25.87890625,-19.53125,-39.0625,16.11328125
11,1734117339065.7188,-15.625,-20.01953125,-41.015625,0.48828125
0,1734117339069.625,-5.859375,-23.92578125,-43.45703125,14.6484375
1,1734117339073.5312,5.37109375,-26.85546875,-45.41015625,3.41796875
2,1734117339077.4375,-15.13671875,-25.87890625,-41.50390625,10.25390625
3,1734117339081.3438,-12.20703125,-26.3671875,-39.55078125,39.55078125
4,1734117339085.25,6.34765625,-26.85546875,-39.0625,15.625
5,1734117339089.1562,-6.8359375,-29.296875,-37.59765625,8.30078125
6,1734117339093.0625,8.7890625,-32.71484375,-37.59765625,32.71484375
7,1734117339096.9688,7.32421875,-21.484375,-36.1328125,27.83203125
8,1734117339100.875,4.8828125,-11.23046875,-33.203125,30.76171875
9,1734117339104.7812,4.39453125,-17.578125,-35.64453125,28.3203125
10,1734117339108.6875,2.44140625,-23.4375,-37.59765625,11.71875
11,1734117339112.5938,-0.48828125,-21.97265625,-35.64453125,9.765625
0,1734117339116.5,-7.8125,-19.53125,-37.59765625,8.7890625
1,1734117339120.4062,-7.8125,-20.01953125,-40.52734375,8.7890625
2,1734117339124.3125,-7.8125,-26.3671875,-39.0625,8.7890625
3,1734117339128.2188,2.9296875,-28.80859375,-38.57421875,-2.44140625
4,1734117339132.125,6.34765625,-21.484375,-38.0859375,5.859375
5,1734117339136.0312,-7.32421875,-23.92578125,-38.0859375,18.06640625
6,1734117339139.9375,-6.34765625,-25.87890625,-38.57421875,13.18359375
7,1734117339143.8438,12.20703125,-17.578125,-32.71484375,20.01953125
8,1734117339147.75,16.11328125,-10.7421875,-27.34375,41.015625
9,1734117339151.6562,-20.5078125,-6.8359375,-38.0859375,14.16015625
10,1734117339155.5625,-8.7890625,-8.7890625,-41.50390625,-3.90625
11,1734117339159.4688,20.01953125,-8.7890625,-37.59765625,13.671875
0,1734117339163.375,4.39453125,-8.30078125,-38.57421875,26.3671875
1,1734117339167.2812,15.13671875,-10.7421875,-36.1328125,21.484375
2,1734117339171.1875,28.80859375,-11.23046875,-33.69140625,10.25390625
3,1734117339175.0938,20.99609375,-15.13671875,-31.73828125,15.625
4,1734117339179,13.18359375,-17.08984375,-27.34375,29.296875
5,1734117339182.9062,6.8359375,-22.4609375,-28.80859375,23.4375
6,1734117339186.8125,-7.32421875,-22.4609375,-33.203125,-1.46484375
7,1734117339190.7188,0.48828125,-5.37109375,-28.3203125,30.76171875
8,1734117339194.625,4.39453125,-6.34765625,-31.73828125,39.55078125
9,1734117339198.5312,-12.20703125,-16.11328125,-37.59765625,7.32421875
10,1734117339202.4375,-0.9765625,-11.71875,-29.296875,17.578125
11,1734117339206.3438,4.39453125,-11.23046875,-29.78515625,29.78515625
0,1734117339210.25,-8.30078125,-14.6484375,-36.62109375,36.62109375
1,1734117339214.1562,-6.34765625,-20.01953125,-36.1328125,37.109375
2,1734117339218.0625,10.25390625,-18.06640625,-34.66796875,16.11328125
3,1734117339221.9688,9.765625,-15.625,-32.2265625,9.765625
4,1734117339225.875,15.625,-15.13671875,-29.78515625,39.0625
5,1734117339229.7812,25.390625,-21.97265625,-31.25,36.62109375
6,1734117339233.6875,20.01953125,-24.90234375,-26.3671875,28.3203125
7,1734117339237.5938,18.5546875,-12.6953125,-21.97265625,45.8984375
8,1734117339241.5,17.08984375,-11.71875,-27.83203125,38.0859375
9,1734117339245.4062,-5.859375,-9.765625,-29.78515625,20.99609375
10,1734117339249.3125,-3.90625,-14.16015625,-25.390625,24.4140625
11,1734117339253.2188,16.6015625,-20.99609375,-27.83203125,46.875
0,1734117339257.125,6.34765625,-15.13671875,-38.57421875,12.6953125
1,1734117339261.0312,-11.71875,-14.6484375,-35.64453125,-13.18359375
2,1734117339264.9375,-16.6015625,-16.11328125,-30.76171875,-6.8359375
3,1734117339268.8438,-5.37109375,-19.04296875,-37.59765625,13.18359375
4,1734117339272.75,-6.8359375,-15.625,-44.921875,23.4375
5,1734117339276.6562,-8.7890625,-9.27734375,-43.9453125,6.34765625
6,1734117339280.5625,-0.48828125,-11.23046875,-34.66796875,16.11328125
7,1734117339284.4688,-7.8125,-9.27734375,-32.2265625,6.34765625
8,1734117339288.375,-7.8125,-12.6953125,-36.1328125,3.41796875
9,1734117339292.2812,-4.8828125,-10.7421875,-33.69140625,-4.39453125
10,1734117339296.1875,-24.4140625,-10.7421875,-33.69140625,-20.5078125
11,1734117339300.0938,-57.12890625,-14.6484375,-34.1796875,-0.9765625
0,1734117339304,-44.43359375,-19.53125,-28.3203125,4.8828125
1,1734117339307.9062,-20.5078125,-26.3671875,-28.80859375,13.18359375
2,1734117339311.8125,-14.6484375,-23.92578125,-29.296875,16.11328125
3,1734117339315.7188,-13.671875,-17.578125,-28.80859375,12.20703125
4,1734117339319.625,-4.39453125,-12.20703125,-32.71484375,-1.953125
5,1734117339323.5312,7.8125,-7.32421875,-27.34375,10.7421875
6,1734117339327.4375,-7.32421875,-17.08984375,-24.4140625,51.26953125
7,1734117339331.3438,-4.39453125,-22.94921875,-28.80859375,31.73828125
8,1734117339335.25,1.953125,-13.671875,-29.296875,10.25390625
9,1734117339339.1562,0.9765625,-11.23046875,-32.71484375,16.11328125
10,1734117339343.0625,5.37109375,-7.8125,-34.1796875,18.5546875
11,1734117339346.9688,-1.953125,-8.7890625,-38.0859375,-2.9296875
0,1734117339350.875,-7.32421875,-16.11328125,-36.62109375,4.8828125
1,1734117339354.7812,-13.671875,-18.5546875,-30.76171875,-11.23046875
2,1734117339358.6875,-22.4609375,-21.484375,-35.15625,-11.23046875
3,1734117339362.5938,-25.87890625,-23.92578125,-36.1328125,18.5546875
4,1734117339366.5,-15.625,-21.484375,-37.59765625,-1.46484375
5,1734117339370.4062,17.08984375,-15.13671875,-39.55078125,-6.34765625
6,1734117339374.3125,7.32421875,-8.7890625,-40.0390625,2.44140625
7,1734117339378.2188,-19.53125,-10.25390625,-35.64453125,4.8828125
8,1734117339382.125,-14.16015625,-15.625,-33.203125,1.46484375
9,1734117339386.0312,-0.9765625,-20.5078125,-37.109375,7.8125
10,1734117339389.9375,-0.48828125,-21.484375,-42.96875,4.39453125
11,1734117339393.8438,6.34765625,-20.99609375,-41.9921875,-12.6953125
0,1734117339397.75,9.765625,-20.99609375,-41.9921875,-6.8359375
1,1734117339401.6562,7.8125,-21.97265625,-45.41015625,25.87890625
2,1734117339405.5625,19.53125,-22.94921875,-45.8984375,45.8984375
3,1734117339409.4688,6.8359375,-18.5546875,-38.57421875,36.1328125
4,1734117339413.375,-11.71875,-18.5546875,-31.25,21.484375
5,1734117339417.2812,-8.30078125,-29.296875,-34.1796875,26.3671875
6,1734117339421.1875,0.48828125,-27.34375,-38.0859375,30.76171875
7,1734117339425.0938,8.30078125,-16.6015625,-34.1796875,32.71484375
8,1734117339429,7.8125,-14.16015625,-28.80859375,38.0859375
9,1734117339432.9062,7.8125,-11.23046875,-37.59765625,41.9921875
10,1734117339436.8125,-8.7890625,-12.20703125,-52.24609375,17.08984375
11,1734117339440.7188,-13.671875,-20.01953125,-52.24609375,4.39453125
0,1734117339444.625,-7.8125,-20.5078125,-45.41015625,4.8828125
1,1734117339448.5312,2.9296875,-16.11328125,-41.50390625,-2.9296875
2,1734117339452.4375,5.37109375,-13.671875,-43.45703125,4.8828125
3,1734117339456.3438,-1.953125,-15.13671875,-41.015625,17.08984375
4,1734117339460.25,16.6015625,-13.671875,-33.69140625,21.484375
5,1734117339464.1562,29.78515625,-13.671875,-35.64453125,38.0859375
6,1734117339468.0625,20.01953125,-18.5546875,-34.66796875,8.30078125
7,1734117339471.9688,24.4140625,-20.5078125,-35.64453125,0.9765625
8,1734117339475.875,30.76171875,-18.5546875,-36.62109375,47.36328125
9,1734117339479.7812,1.46484375,-21.484375,-34.1796875,41.9921875
10,1734117339483.6875,-6.8359375,-21.484375,-36.62109375,20.99609375
11,1734117339487.5938,17.08984375,-17.08984375,-30.76171875,14.6484375
0,1734117339491.5,11.71875,-30.2734375,-31.73828125,15.13671875
1,1734117339495.4062,-8.30078125,-29.78515625,-38.0859375,25.87890625
2,1734117339499.3125,-14.16015625,-17.08984375,-38.0859375,21.484375
3,1734117339503.2188,-3.90625,-14.6484375,-39.55078125,20.5078125
4,1734117339507.125,-0.9765625,-14.16015625,-34.66796875,27.34375
5,1734117339511.0312,-2.9296875,-18.06640625,-28.80859375,26.3671875
6,1734117339514.9375,-13.671875,-20.99609375,-33.69140625,29.78515625
7,1734117339518.8438,-3.41796875,-17.578125,-38.57421875,16.6015625
8,1734117339522.75,20.01953125,-16.6015625,-34.66796875,39.55078125
9,1734117339526.6562,5.859375,-20.5078125,-41.9921875,40.0390625
10,1734117339530.5625,-13.18359375,-22.94921875,-47.36328125,-6.34765625
11,1734117339534.4688,-8.30078125,-21.97265625,-43.9453125,-6.34765625
0,1734117339538.375,4.39453125,-22.4609375,-45.8984375,10.25390625
1,1734117339542.2812,-17.578125,-21.97265625,-43.45703125,8.7890625
2,1734117339546.1875,-6.34765625,-17.578125,-40.0390625,10.25390625
3,1734117339550.0938,18.5546875,-15.625,-42.96875,12.6953125
4,1734117339554,0.9765625,-17.08984375,-41.9921875,0.9765625
5,1734117339557.9062,-12.20703125,-18.5546875,-39.0625,2.9296875
6,1734117339561.8125,-15.625,-20.01953125,-41.9921875,9.765625
7,1734117339565.7188,10.25390625,-28.3203125,-39.55078125,18.06640625
8,1734117339569.625,10.25390625,-37.109375,-37.109375,11.23046875
9,1734117339573.5312,-2.44140625,-33.203125,-38.0859375,12.20703125
10,1734117339577.4375,5.37109375,-28.3203125,-36.1328125,26.85546875
11,1734117339581.3438,-8.30078125,-28.80859375,-36.1328125,18.06640625
0,1734117339585.25,-2.44140625,-26.3671875,-37.109375,20.5078125
1,1734117339589.1562,3.41796875,-23.92578125,-39.55078125,26.3671875
2,1734117339593.0625,-9.765625,-25.87890625,-42.48046875,24.4140625
3,1734117339596.9688,-10.25390625,-26.85546875,-45.8984375,11.71875
4,1734117339600.875,-2.44140625,-22.94921875,-46.875,19.53125
5,1734117339604.7812,-1.46484375,-24.90234375,-43.45703125,35.15625
6,1734117339608.6875,12.6953125,-24.4140625,-41.50390625,11.23046875
7,1734117339612.5938,15.625,-25.390625,-39.0625,10.25390625
8,1734117339616.5,-6.8359375,-29.78515625,-40.0390625,26.3671875
9,1734117339620.4062,7.32421875,-23.4375,-41.50390625,16.6015625
10,1734117339624.3125,21.97265625,-17.08984375,-37.59765625,19.53125
11,1734117339628.2188,2.9296875,-21.484375,-37.59765625,30.76171875
0,1734117339632.125,8.30078125,-21.484375,-47.36328125,37.109375
1,1734117339636.0312,17.08984375,-15.625,-42.96875,40.0390625
2,1734117339639.9375,9.765625,-15.13671875,-35.15625,37.109375
3,1734117339643.8438,8.7890625,-13.671875,-37.59765625,32.71484375
4,1734117339647.75,-1.46484375,-13.18359375,-40.0390625,39.0625
5,1734117339651.6562,-14.16015625,-18.06640625,-33.69140625,26.85546875
6,1734117339655.5625,-16.11328125,-23.4375,-29.296875,6.34765625
7,1734117339659.4688,-2.44140625,-26.85546875,-31.73828125,26.3671875
8,1734117339663.375,-17.578125,-28.80859375,-29.296875,21.484375
9,1734117339667.2812,-49.31640625,-36.62109375,-27.83203125,18.5546875
10,1734117339671.1875,-24.4140625,-36.1328125,-32.71484375,22.94921875
11,1734117339675.0938,-1.953125,-25.87890625,-35.15625,20.99609375
0,1734117339679,-2.44140625,-26.3671875,-37.59765625,21.97265625
1,1734117339682.9062,-16.6015625,-23.4375,-37.59765625,14.6484375
2,1734117339686.8125,-24.4140625,-22.94921875,-36.62109375,21.97265625
3,1734117339690.7188,-19.53125,-28.80859375,-40.0390625,27.34375
4,1734117339694.625,-13.671875,-26.3671875,-36.62109375,26.85546875
5,1734117339698.5312,-20.99609375,-26.85546875,-34.66796875,31.25
6,1734117339702.4375,-23.4375,-30.76171875,-38.57421875,27.34375
7,1734117339706.3438,-17.578125,-27.83203125,-35.64453125,-6.34765625
8,1734117339710.25,-14.16015625,-27.83203125,-37.109375,-14.16015625
9,1734117339714.1562,-9.27734375,-26.3671875,-41.9921875,11.23046875
10,1734117339718.0625,14.16015625,-28.3203125,-40.0390625,13.671875
11,1734117339721.9688,20.01953125,-26.3671875,-37.59765625,18.06640625
0,1734117339725.875,19.04296875,-12.20703125,-37.59765625,10.25390625
1,1734117339729.7812,22.94921875,-11.71875,-39.55078125,5.859375
2,1734117339733.6875,21.484375,-19.04296875,-40.0390625,18.5546875
3,1734117339737.5938,33.203125,-17.08984375,-42.96875,14.16015625
4,1734117339741.5,19.04296875,-14.6484375,-43.9453125,14.16015625
5,1734117339745.4062,-12.20703125,-21.484375,-43.45703125,8.30078125
6,1734117339749.3125,6.8359375,-23.4375,-41.9921875,17.578125
7,1734117339753.2188,28.80859375,-21.484375,-38.57421875,15.13671875
8,1734117339757.125,9.27734375,-22.4609375,-39.0625,4.8828125
9,1734117339761.0312,-7.8125,-27.83203125,-37.59765625,16.6015625
10,1734117339764.9375,-7.8125,-30.76171875,-35.64453125,22.94921875
11,1734117339768.8438,-16.11328125,-18.06640625,-40.0390625,33.203125
0,1734117339772.75,-10.25390625,-13.18359375,-42.96875,40.52734375
1,1734117339776.6562,5.859375,-22.94921875,-46.875,31.73828125
2,1734117339780.5625,9.765625,-26.3671875,-45.8984375,11.71875
3,1734117339784.4688,6.8359375,-23.4375,-42.96875,12.20703125
4,1734117339788.375,-2.44140625,-21.97265625,-45.41015625,26.3671875
5,1734117339792.2812,1.953125,-22.4609375,-47.36328125,31.73828125
6,1734117339796.1875,0.9765625,-28.80859375,-48.33984375,13.18359375
7,1734117339800.0938,-15.625,-40.52734375,-50.29296875,-13.18359375
8,1734117339804,-11.23046875,-37.59765625,-45.41015625,5.859375
9,1734117339807.9062,3.41796875,-27.34375,-36.62109375,29.78515625
10,1734117339811.8125,-3.90625,-24.4140625,-41.015625,11.71875
11,1734117339815.7188,-17.08984375,-19.04296875,-41.50390625,-10.25390625
0,1734117339819.625,5.37109375,-19.53125,-36.1328125,9.765625
1,1734117339823.5312,20.01953125,-20.5078125,-36.62109375,24.4140625
2,1734117339827.4375,17.578125,-12.6953125,-38.0859375,23.4375
3,1734117339831.3438,18.06640625,-8.7890625,-37.59765625,17.08984375
4,1734117339835.25,23.4375,-10.25390625,-32.71484375,21.484375
5,1734117339839.1562,18.06640625,-10.25390625,-32.2265625,34.66796875
6,1734117339843.0625,3.90625,-9.765625,-31.25,24.90234375
7,1734117339846.9688,13.18359375,-10.7421875,-29.296875,22.4609375
8,1734117339850.875,9.27734375,-16.11328125,-27.83203125,36.62109375
9,1734117339854.7812,-2.44140625,-18.5546875,-35.15625,30.76171875
10,1734117339858.6875,-4.8828125,-26.85546875,-42.48046875,9.27734375
11,1734117339862.5938,-3.90625,-42.48046875,-43.45703125,26.3671875
0,1734117339866.5,-15.13671875,-34.1796875,-39.55078125,15.13671875
1,1734117339870.4062,-15.13671875,-20.99609375,-38.57421875,0.48828125
2,1734117339874.3125,-7.32421875,-18.5546875,-39.55078125,20.99609375
3,1734117339878.2188,-11.23046875,-12.20703125,-30.76171875,23.92578125
4,1734117339882.125,-19.04296875,-11.23046875,-26.3671875,17.08984375
5,1734117339886.0312,-17.08984375,-14.6484375,-31.25,5.859375
6,1734117339889.9375,-13.18359375,-15.625,-33.69140625,1.46484375
7,1734117339893.8438,-6.8359375,-17.08984375,-33.69140625,8.30078125
8,1734117339897.75,-13.18359375,-13.671875,-29.296875,21.484375
9,1734117339901.6562,-30.2734375,-15.625,-32.2265625,9.765625
10,1734117339905.5625,-3.41796875,-23.92578125,-36.1328125,-0.48828125
11,1734117339909.4688,5.37109375,-19.53125,-35.15625,2.9296875
0,1734117339913.375,0.9765625,-9.27734375,-41.015625,-3.90625
1,1734117339917.2812,7.32421875,-9.765625,-40.52734375,3.90625
2,1734117339921.1875,0.48828125,-13.671875,-36.1328125,26.3671875
3,1734117339925.0938,2.44140625,-14.16015625,-35.15625,20.5078125
4,1734117339929,8.30078125,-16.6015625,-34.1796875,5.859375
5,1734117339932.9062,2.9296875,-21.484375,-31.25,17.08984375
6,1734117339936.8125,13.18359375,-16.11328125,-31.25,16.11328125
7,1734117339940.7188,23.92578125,-10.25390625,-25.87890625,21.97265625
8,1734117339944.625,8.7890625,-12.6953125,-21.97265625,35.15625
9,1734117339948.5312,-0.48828125,-16.6015625,-30.2734375,23.92578125
10,1734117339952.4375,1.46484375,-20.99609375,-34.1796875,24.4140625
11,1734117339956.3438,-1.46484375,-26.85546875,-39.0625,13.18359375
0,1734117339960.25,5.37109375,-25.87890625,-41.015625,7.32421875
1,1734117339964.1562,15.13671875,-14.16015625,-38.57421875,9.765625
2,1734117339968.0625,7.8125,-11.71875,-38.0859375,15.13671875
3,1734117339971.9688,-8.30078125,-31.25,-36.1328125,15.13671875
4,1734117339975.875,-0.9765625,-31.73828125,-39.55078125,6.34765625
5,1734117339979.7812,8.7890625,-16.6015625,-46.38671875,8.30078125
6,1734117339983.6875,-8.30078125,-20.01953125,-42.96875,13.671875
7,1734117339987.5938,-16.6015625,-24.4140625,-38.57421875,18.06640625
8,1734117339991.5,-9.27734375,-22.4609375,-43.45703125,0
9,1734117339995.4062,3.90625,-25.87890625,-43.9453125,1.46484375
10,1734117339999.3125,4.8828125,-24.4140625,-42.96875,23.92578125
11,1734117340003.2188,-5.859375,-23.4375,-43.9453125,2.9296875
0,1734117340007.125,3.90625,-22.94921875,-36.62109375,11.71875
1,1734117340011.0312,16.11328125,-22.4609375,-26.85546875,36.1328125
2,1734117340014.9375,15.13671875,-20.99609375,-27.83203125,39.0625
3,1734117340018.8438,9.765625,-20.5078125,-39.0625,15.625
4,1734117340022.75,-8.30078125,-28.80859375,-41.50390625,1.953125
5,1734117340026.6562,-8.30078125,-29.296875,-38.0859375,8.30078125
6,1734117340030.5625,24.4140625,-29.78515625,-39.0625,37.59765625
7,1734117340034.4688,12.6953125,-33.69140625,-44.43359375,33.203125
8,1734117340038.375,4.39453125,-27.34375,-45.8984375,3.41796875
9,1734117340042.2812,5.859375,-21.97265625,-41.9921875,6.34765625
10,1734117340046.1875,0,-19.04296875,-32.71484375,32.71484375
11,1734117340050.0938,6.34765625,-24.4140625,-34.1796875,23.4375
0,1734117340054,2.44140625,-29.296875,-38.0859375,-10.25390625
1,1734117340057.9062,-11.23046875,-22.4609375,-36.1328125,33.203125
2,1734117340061.8125,-3.90625,-14.16015625,-41.015625,61.03515625
3,1734117340065.7188,6.34765625,-13.18359375,-39.55078125,18.5546875
4,1734117340069.625,-11.71875,-18.06640625,-39.55078125,13.671875
5,1734117340073.5312,-21.97265625,-19.04296875,-35.64453125,50.78125
6,1734117340077.4375,-1.953125,-20.01953125,-27.83203125,57.12890625
7,1734117340081.3438,5.859375,-16.6015625,-27.34375,53.7109375
8,1734117340085.25,11.71875,-14.6484375,-29.296875,33.69140625
9,1734117340089.1562,12.20703125,-16.11328125,-32.71484375,31.73828125
10,1734117340093.0625,6.34765625,-12.6953125,-33.203125,39.55078125
11,1734117340096.9688,14.16015625,-13.18359375,-41.9921875,32.2265625
0,1734117340100.875,9.27734375,-15.625,-39.0625,19.04296875
1,1734117340104.7812,0.48828125,-23.92578125,-32.71484375,-3.41796875
2,1734117340108.6875,13.18359375,-31.73828125,-37.59765625,19.53125
3,1734117340112.5938,0.9765625,-33.69140625,-41.50390625,19.04296875
4,1734117340116.5,4.8828125,-40.0390625,-41.9921875,23.4375
5,1734117340120.4062,11.23046875,-26.3671875,-41.9921875,7.8125
6,1734117340124.3125,-0.48828125,-11.71875,-44.921875,-13.18359375
7,1734117340128.2188,-2.9296875,-12.6953125,-42.48046875,29.296875
8,1734117340132.125,-0.48828125,-17.08984375,-42.96875,26.3671875
9,1734117340136.0312,7.8125,-18.06640625,-43.45703125,-11.71875
10,1734117340139.9375,-1.46484375,-17.578125,-44.43359375,-5.859375
11,1734117340143.8438,3.41796875,-27.34375,-41.9921875,14.6484375
0,1734117340147.75,-8.30078125,-23.4375,-35.64453125,27.34375
1,1734117340151.6562,-31.73828125,-18.06640625,-33.203125,20.01953125
2,1734117340155.5625,1.46484375,-23.92578125,-40.0390625,16.6015625
3,1734117340159.4688,13.18359375,-25.390625,-41.9921875,8.30078125
4,1734117340163.375,22.94921875,-24.90234375,-33.69140625,7.32421875
5,1734117340167.2812,18.5546875,-25.390625,-34.1796875,4.8828125
6,1734117340171.1875,0.48828125,-24.90234375,-37.109375,4.39453125
7,1734117340175.0938,16.11328125,-19.53125,-34.1796875,26.85546875
8,1734117340179,22.4609375,-12.6953125,-34.66796875,58.59375
9,1734117340182.9062,9.765625,-13.18359375,-39.0625,26.3671875
10,1734117340186.8125,11.71875,-25.390625,-43.9453125,-20.99609375
11,1734117340190.7188,-1.953125,-20.99609375,-40.52734375,25.390625
0,1734117340194.625,-0.48828125,-17.08984375,-36.62109375,45.41015625
1,1734117340198.5312,-5.859375,-31.25,-37.109375,25.87890625
2,1734117340202.4375,-7.32421875,-30.2734375,-37.59765625,12.6953125
3,1734117340206.3438,-16.6015625,-22.4609375,-40.52734375,15.13671875
4,1734117340210.25,-14.6484375,-21.97265625,-42.48046875,20.5078125
5,1734117340214.1562,4.8828125,-24.90234375,-42.96875,28.3203125
6,1734117340218.0625,-6.34765625,-24.90234375,-42.96875,13.671875
7,1734117340221.9688,-4.39453125,-27.34375,-45.8984375,16.11328125
8,1734117340225.875,-2.9296875,-29.296875,-45.8984375,40.52734375
9,1734117340229.7812,-10.25390625,-27.83203125,-49.31640625,9.765625
10,1734117340233.6875,-11.23046875,-22.94921875,-50.29296875,10.7421875
11,1734117340237.5938,5.37109375,-15.13671875,-40.52734375,28.3203125
0,1734117340241.5,0.48828125,-16.6015625,-39.0625,18.06640625
1,1734117340245.4062,-0.48828125,-19.53125,-44.43359375,1.953125
2,1734117340249.3125,0,-21.97265625,-48.33984375,-12.6953125
3,1734117340253.2188,-24.90234375,-29.78515625,-47.8515625,12.6953125
4,1734117340257.125,-12.20703125,-37.109375,-46.38671875,20.5078125
5,1734117340261.0312,24.4140625,-27.34375,-41.015625,10.7421875
6,1734117340264.9375,29.296875,-18.5546875,-35.64453125,35.64453125
7,1734117340268.8438,15.13671875,-22.4609375,-38.0859375,44.43359375
8,1734117340272.75,14.16015625,-22.4609375,-40.52734375,34.1796875
9,1734117340276.6562,5.859375,-20.99609375,-45.41015625,27.34375
10,1734117340280.5625,-8.30078125,-24.90234375,-49.31640625,10.25390625
11,1734117340284.4688,-13.671875,-24.4140625,-44.43359375,12.20703125
0,1734117340288.375,-9.27734375,-27.34375,-40.0390625,17.08984375
1,1734117340292.2812,-6.34765625,-31.73828125,-41.9921875,26.85546875
2,1734117340296.1875,-13.671875,-29.78515625,-41.9921875,35.15625
3,1734117340300.0938,-21.484375,-30.2734375,-41.50390625,22.4609375
4,1734117340304,-18.5546875,-38.0859375,-40.0390625,14.6484375
5,1734117340307.9062,6.34765625,-36.62109375,-42.48046875,20.01953125
6,1734117340311.8125,-11.71875,-27.34375,-46.38671875,21.97265625
7,1734117340315.7188,-14.16015625,-30.76171875,-41.015625,31.73828125
8,1734117340319.625,-3.41796875,-25.390625,-37.109375,26.85546875
9,1734117340323.5312,-9.27734375,-13.18359375,-41.015625,0.9765625
10,1734117340327.4375,-16.11328125,-15.625,-40.52734375,8.30078125
11,1734117340331.3438,-16.6015625,-18.5546875,-37.59765625,19.53125
0,1734117340335.25,-20.5078125,-21.484375,-44.921875,20.01953125
1,1734117340339.1562,-5.859375,-28.3203125,-48.828125,6.8359375
2,1734117340343.0625,8.7890625,-23.4375,-41.015625,0
3,1734117340346.9688,-2.44140625,-19.53125,-35.64453125,7.32421875
4,1734117340350.875,-7.8125,-25.390625,-32.71484375,2.44140625
5,1734117340354.7812,2.44140625,-23.4375,-31.73828125,-9.765625
6,1734117340358.6875,-14.6484375,-28.3203125,-39.0625,-4.8828125
7,1734117340362.5938,-15.625,-24.4140625,-47.8515625,-0.9765625
8,1734117340366.5,15.13671875,-11.23046875,-51.26953125,-14.6484375
9,1734117340370.4062,9.27734375,-7.8125,-51.26953125,-13.671875
10,1734117340374.3125,4.39453125,-9.765625,-43.9453125,-24.90234375
11,1734117340378.2188,0,-15.13671875,-38.57421875,-25.87890625
0,1734117340382.125,-22.94921875,-18.06640625,-44.43359375,-6.34765625
1,1734117340386.0312,-10.25390625,-19.04296875,-41.015625,-10.25390625
2,1734117340389.9375,0.48828125,-18.06640625,-38.57421875,-4.8828125
3,1734117340393.8438,-20.5078125,-21.484375,-39.55078125,1.46484375
4,1734117340397.75,-16.11328125,-23.4375,-43.45703125,1.46484375
5,1734117340401.6562,-12.6953125,-25.87890625,-39.0625,5.859375
6,1734117340405.5625,2.44140625,-25.87890625,-35.64453125,28.3203125
7,1734117340409.4688,2.9296875,-19.53125,-47.36328125,26.3671875
8,1734117340413.375,-2.44140625,-31.73828125,-53.22265625,-0.9765625
9,1734117340417.2812,-3.90625,-32.71484375,-45.8984375,-1.953125
10,1734117340421.1875,-15.625,-20.5078125,-43.9453125,0.9765625
11,1734117340425.0938,1.46484375,-21.484375,-43.9453125,6.8359375
0,1734117340429,17.08984375,-25.87890625,-42.48046875,-10.7421875
1,1734117340432.9062,-0.48828125,-29.296875,-39.55078125,2.44140625
2,1734117340436.8125,-1.953125,-22.94921875,-37.59765625,28.80859375
3,1734117340440.7188,18.06640625,-24.4140625,-43.9453125,16.11328125
4,1734117340444.625,13.671875,-27.83203125,-42.96875,13.18359375
5,1734117340448.5312,18.06640625,-20.99609375,-38.0859375,18.5546875
6,1734117340452.4375,12.20703125,-25.87890625,-36.1328125,18.06640625
7,1734117340456.3438,5.859375,-28.80859375,-35.64453125,20.5078125
8,1734117340460.25,0,-25.390625,-37.109375,9.765625
9,1734117340464.1562,0.9765625,-25.390625,-36.62109375,16.6015625
10,1734117340468.0625,-1.46484375,-32.2265625,-35.15625,5.859375
11,1734117340471.9688,-19.53125,-39.55078125,-41.9921875,-44.921875
0,1734117340475.875,-23.92578125,-29.78515625,-45.41015625,-11.23046875
1,1734117340479.7812,-23.92578125,-30.2734375,-41.9921875,19.53125
2,1734117340483.6875,-15.625,-30.2734375,-38.0859375,-8.7890625
3,1734117340487.5938,-32.71484375,-27.34375,-41.50390625,-6.8359375
4,1734117340491.5,-20.99609375,-27.83203125,-42.48046875,2.9296875
5,1734117340495.4062,16.11328125,-26.3671875,-38.0859375,27.83203125
6,1734117340499.3125,2.9296875,-25.87890625,-40.52734375,27.83203125
7,1734117340503.2188,2.9296875,-24.4140625,-45.8984375,-0.9765625
8,1734117340507.125,0.48828125,-23.4375,-39.55078125,14.6484375
9,1734117340511.0312,-4.39453125,-24.90234375,-33.69140625,39.55078125
10,1734117340514.9375,-4.8828125,-33.203125,-38.0859375,42.48046875
11,1734117340518.8438,-7.8125,-51.7578125,-38.57421875,-4.8828125
0,1734117340522.75,-9.27734375,-41.50390625,-37.59765625,-24.4140625
1,1734117340526.6562,-19.53125,-20.01953125,-39.55078125,13.18359375
2,1734117340530.5625,-2.44140625,-21.484375,-43.45703125,28.80859375
3,1734117340534.4688,4.39453125,-21.97265625,-42.48046875,14.6484375
4,1734117340538.375,-19.53125,-15.625,-35.64453125,0
5,1734117340542.2812,-20.99609375,-17.578125,-35.15625,4.39453125
6,1734117340546.1875,5.859375,-18.06640625,-37.109375,22.4609375
7,1734117340550.0938,-2.9296875,-13.671875,-40.0390625,4.39453125
8,1734117340554,-1.953125,-18.06640625,-41.9921875,1.46484375
9,1734117340557.9062,22.94921875,-19.53125,-37.59765625,25.390625
10,1734117340561.8125,20.01953125,-16.6015625,-41.9921875,16.6015625
11,1734117340565.7188,-0.48828125,-20.5078125,-43.9453125,-5.37109375
0,1734117340569.625,10.25390625,-24.90234375,-41.015625,17.08984375
1,1734117340573.5312,26.85546875,-26.3671875,-39.55078125,23.4375
2,1734117340577.4375,0.9765625,-34.1796875,-39.55078125,18.06640625
3,1734117340581.3438,-9.765625,-33.69140625,-40.52734375,43.45703125
4,1734117340585.25,1.46484375,-26.85546875,-39.0625,36.1328125
5,1734117340589.1562,-3.90625,-21.484375,-38.57421875,35.64453125
6,1734117340593.0625,-7.32421875,-15.625,-37.59765625,26.85546875
7,1734117340596.9688,-5.859375,-20.01953125,-36.62109375,11.71875
8,1734117340600.875,-4.8828125,-22.94921875,-37.59765625,12.20703125
9,1734117340604.7812,-6.8359375,-20.01953125,-44.921875,9.765625
10,1734117340608.6875,-21.484375,-24.4140625,-45.41015625,2.44140625
11,1734117340612.5938,-10.25390625,-30.76171875,-38.0859375,15.625
0,1734117340616.5,5.859375,-30.2734375,-37.59765625,14.16015625
1,1734117340620.4062,1.46484375,-25.87890625,-41.50390625,-1.953125
2,1734117340624.3125,12.20703125,-19.04296875,-46.38671875,-13.671875
3,1734117340628.2188,10.7421875,-17.578125,-45.41015625,7.8125
4,1734117340632.125,-0.48828125,-25.390625,-41.015625,18.5546875
5,1734117340636.0312,3.41796875,-25.390625,-37.109375,12.6953125
6,1734117340639.9375,-1.46484375,-17.08984375,-33.203125,25.87890625
7,1734117340643.8438,5.37109375,-16.6015625,-31.73828125,33.69140625
8,1734117340647.75,13.671875,-22.94921875,-28.3203125,18.5546875
9,1734117340651.6562,-5.859375,-21.97265625,-38.0859375,-8.30078125
10,1734117340655.5625,-5.37109375,-19.53125,-45.41015625,3.90625
11,1734117340659.4688,0.48828125,-21.97265625,-41.50390625,22.4609375
0,1734117340663.375,12.20703125,-20.5078125,-45.41015625,24.90234375
1,1734117340667.2812,0.48828125,-20.01953125,-50.29296875,9.765625
2,1734117340671.1875,-22.4609375,-25.87890625,-43.45703125,19.04296875
3,1734117340675.0938,-12.20703125,-29.78515625,-40.0390625,21.484375
4,1734117340679,7.8125,-25.390625,-40.0390625,15.13671875
5,1734117340682.9062,18.5546875,-21.484375,-36.1328125,33.203125
6,1734117340686.8125,15.625,-19.04296875,-33.69140625,28.80859375
7,1734117340690.7188,19.53125,-25.87890625,-29.296875,29.296875
8,1734117340694.625,15.625,-28.3203125,-31.25,22.94921875
9,1734117340698.5312,-4.8828125,-20.99609375,-40.0390625,0.9765625
10,1734117340702.4375,-6.8359375,-17.08984375,-40.0390625,4.39453125
11,1734117340706.3438,0.48828125,-18.06640625,-41.015625,15.13671875
0,1734117340710.25,-0.9765625,-20.99609375,-38.57421875,6.34765625
1,1734117340714.1562,-0.9765625,-17.08984375,-35.15625,-2.9296875
2,1734117340718.0625,-2.44140625,-20.99609375,-34.1796875,8.7890625
3,1734117340721.9688,-3.90625,-26.3671875,-33.203125,6.34765625
4,1734117340725.875,-3.41796875,-25.87890625,-36.62109375,-1.46484375
5,1734117340729.7812,23.4375,-25.390625,-31.25,19.04296875
6,1734117340733.6875,24.90234375,-19.04296875,-29.296875,12.20703125
7,1734117340737.5938,1.46484375,-8.7890625,-33.203125,5.37109375
8,1734117340741.5,0.48828125,-5.37109375,-38.57421875,25.87890625
9,1734117340745.4062,-5.37109375,-2.9296875,-38.57421875,15.13671875
10,1734117340749.3125,-17.08984375,-8.7890625,-36.1328125,20.5078125
11,1734117340753.2188,-14.16015625,-15.13671875,-34.1796875,23.92578125
0,1734117340757.125,11.23046875,-14.16015625,-27.34375,23.4375
1,1734117340761.0312,21.97265625,-15.13671875,-31.73828125,34.1796875
2,1734117340764.9375,20.99609375,-10.25390625,-36.1328125,24.4140625
3,1734117340768.8438,16.6015625,-2.44140625,-31.73828125,15.13671875
4,1734117340772.75,8.30078125,-3.41796875,-37.59765625,7.32421875
5,1734117340776.6562,6.34765625,-7.32421875,-38.57421875,13.671875
6,1734117340780.5625,1.953125,-12.20703125,-27.83203125,42.48046875
7,1734117340784.4688,-6.8359375,-19.53125,-29.296875,14.6484375
8,1734117340788.375,-2.44140625,-21.484375,-35.64453125,-17.578125
9,1734117340792.2812,-12.20703125,-31.73828125,-35.15625,11.71875
10,1734117340796.1875,-0.9765625,-24.4140625,-36.1328125,32.71484375
11,1734117340800.0938,2.9296875,-7.8125,-33.69140625,10.25390625
0,1734117340804,-8.7890625,-6.34765625,-35.15625,6.8359375
1,1734117340807.9062,-1.46484375,-4.39453125,-37.59765625,44.921875
2,1734117340811.8125,-5.859375,-4.8828125,-33.69140625,26.3671875
3,1734117340815.7188,0.48828125,-7.8125,-36.1328125,24.4140625
4,1734117340819.625,1.46484375,-11.71875,-43.45703125,15.625
5,1734117340823.5312,4.39453125,-13.18359375,-41.50390625,6.34765625
6,1734117340827.4375,12.6953125,-8.7890625,-36.1328125,38.57421875
7,1734117340831.3438,9.27734375,-12.20703125,-36.62109375,32.71484375
8,1734117340835.25,-1.953125,-23.92578125,-38.0859375,-20.5078125
9,1734117340839.1562,-19.53125,-30.76171875,-36.1328125,-9.765625
10,1734117340843.0625,-11.23046875,-28.80859375,-30.76171875,44.43359375
11,1734117340846.9688,-5.859375,-16.11328125,-37.109375,32.2265625
0,1734117340850.875,-13.18359375,-13.671875,-42.96875,17.08984375
1,1734117340854.7812,0,-14.16015625,-43.45703125,16.6015625
2,1734117340858.6875,-6.8359375,-8.30078125,-43.9453125,-2.9296875
3,1734117340862.5938,-12.20703125,-7.8125,-48.33984375,-15.13671875
4,1734117340866.5,-8.7890625,-7.32421875,-46.875,-0.48828125
5,1734117340870.4062,3.90625,-5.37109375,-42.48046875,26.3671875
6,1734117340874.3125,5.37109375,-11.23046875,-42.96875,14.6484375
7,1734117340878.2188,-28.3203125,-12.6953125,-40.52734375,-14.16015625
8,1734117340882.125,-19.04296875,-8.7890625,-35.64453125,20.5078125
9,1734117340886.0312,11.23046875,-2.9296875,-29.296875,53.7109375
10,1734117340889.9375,11.23046875,-8.7890625,-31.73828125,25.390625
11,1734117340893.8438,2.44140625,-22.4609375,-36.1328125,0.9765625
0,1734117340897.75,-3.90625,-12.6953125,-36.1328125,11.23046875
1,1734117340901.6562,5.859375,-0.48828125,-40.52734375,5.859375
2,1734117340905.5625,0.48828125,-4.39453125,-41.9921875,7.8125
3,1734117340909.4688,-4.39453125,-10.25390625,-37.59765625,37.109375
4,1734117340913.375,4.8828125,-10.7421875,-31.25,21.484375
5,1734117340917.2812,0,-16.11328125,-29.296875,3.90625
6,1734117340921.1875,-12.6953125,-16.6015625,-35.15625,10.25390625
7,1734117340925.0938,-2.9296875,-12.6953125,-36.1328125,1.953125
8,1734117340929,11.71875,-13.671875,-31.73828125,10.25390625
9,1734117340932.9062,-11.23046875,-20.5078125,-23.92578125,20.99609375
10,1734117340936.8125,-14.6484375,-18.5546875,-31.73828125,8.30078125
11,1734117340940.7188,-4.39453125,-14.6484375,-40.0390625,3.41796875
0,1734117340944.625,-10.25390625,-15.13671875,-35.15625,10.25390625
1,1734117340948.5312,-17.578125,-16.11328125,-33.69140625,3.41796875
2,1734117340952.4375,-20.01953125,-15.625,-28.80859375,10.25390625
3,1734117340956.3438,-5.37109375,-11.71875,-27.34375,17.578125
4,1734117340960.25,-1.953125,-9.765625,-26.3671875,15.13671875
5,1734117340964.1562,-3.90625,-11.71875,-29.296875,-3.41796875
6,1734117340968.0625,-6.8359375,-21.97265625,-32.2265625,17.08984375
7,1734117340971.9688,-19.53125,-18.06640625,-30.2734375,7.32421875
8,1734117340975.875,-16.11328125,-8.7890625,-28.80859375,23.4375
9,1734117340979.7812,-22.94921875,-10.7421875,-30.2734375,51.26953125
10,1734117340983.6875,-32.2265625,-14.16015625,-31.73828125,3.90625
11,1734117340987.5938,-19.04296875,-14.16015625,-31.25,-7.32421875
0,1734117340991.5,-17.08984375,-15.13671875,-30.2734375,0
1,1734117340995.4062,-17.08984375,-18.06640625,-29.78515625,-5.37109375
2,1734117340999.3125,-15.625,-20.5078125,-31.25,-11.23046875
3,1734117341003.2188,-32.71484375,-19.53125,-27.83203125,4.39453125
4,1734117341007.125,-23.92578125,-17.578125,-27.83203125,5.37109375
5,1734117341011.0312,-9.765625,-22.4609375,-29.296875,-2.44140625
6,1734117341014.9375,-2.44140625,-24.90234375,-30.76171875,-0.9765625
7,1734117341018.8438,-18.5546875,-29.78515625,-30.2734375,-18.06640625
8,1734117341022.75,-34.66796875,-25.87890625,-27.83203125,-9.765625
9,1734117341026.6562,-25.390625,-20.01953125,-34.66796875,-9.27734375
10,1734117341030.5625,-13.671875,-23.92578125,-36.1328125,-11.23046875
11,1734117341034.4688,-8.7890625,-21.97265625,-37.59765625,-17.578125
0,1734117341038.375,-9.765625,-18.5546875,-44.921875,-8.7890625
1,1734117341042.2812,-8.30078125,-11.71875,-41.9921875,6.8359375
2,1734117341046.1875,-8.7890625,-8.30078125,-35.64453125,13.18359375
3,1734117341050.0938,-0.9765625,-6.34765625,-34.66796875,25.87890625
4,1734117341054,-15.625,-6.8359375,-37.59765625,21.97265625
5,1734117341057.9062,-42.48046875,-20.01953125,-38.0859375,9.27734375
6,1734117341061.8125,-14.16015625,-20.5078125,-40.0390625,-6.8359375
7,1734117341065.7188,29.296875,-10.7421875,-39.0625,6.8359375
8,1734117341069.625,11.23046875,-19.53125,-38.0859375,7.8125
9,1734117341073.5312,-4.8828125,-26.3671875,-40.0390625,5.859375
10,1734117341077.4375,10.25390625,-20.01953125,-40.52734375,15.13671875
11,1734117341081.3438,9.765625,-19.04296875,-41.015625,0.48828125
0,1734117341085.25,1.953125,-19.04296875,-41.015625,17.08984375
1,1734117341089.1562,14.16015625,-20.5078125,-38.57421875,35.64453125
2,1734117341093.0625,11.71875,-22.4609375,-35.15625,37.59765625
3,1734117341096.9688,-8.30078125,-19.04296875,-35.64453125,32.2265625
4,1734117341100.875,-6.8359375,-16.11328125,-36.1328125,35.64453125
5,1734117341104.7812,-15.13671875,-18.06640625,-31.73828125,31.25
6,1734117341108.6875,-20.01953125,-21.484375,-33.69140625,30.2734375
7,1734117341112.5938,0.9765625,-21.484375,-34.66796875,34.66796875
8,1734117341116.5,-4.8828125,-18.5546875,-36.1328125,31.25
9,1734117341120.4062,-10.25390625,-20.01953125,-44.921875,-0.48828125
10,1734117341124.3125,8.30078125,-19.04296875,-42.96875,-2.44140625
11,1734117341128.2188,0,-24.90234375,-41.9921875,34.66796875
0,1734117341132.125,2.9296875,-31.25,-46.38671875,24.90234375
1,1734117341136.0312,3.41796875,-18.06640625,-44.43359375,26.3671875
2,1734117341139.9375,-0.48828125,-14.16015625,-38.57421875,19.53125
3,1734117341143.8438,4.39453125,-23.4375,-38.57421875,16.6015625
4,1734117341147.75,-0.48828125,-20.01953125,-40.52734375,22.94921875
5,1734117341151.6562,-2.9296875,-19.04296875,-40.52734375,12.20703125
6,1734117341155.5625,0.9765625,-21.97265625,-44.43359375,19.53125
7,1734117341159.4688,3.90625,-19.04296875,-43.9453125,21.97265625
8,1734117341163.375,1.953125,-24.4140625,-45.8984375,13.671875
9,1734117341167.2812,-0.48828125,-22.94921875,-48.33984375,12.6953125
10,1734117341171.1875,-16.6015625,-22.4609375,-42.48046875,29.296875
11,1734117341175.0938,-17.578125,-23.92578125,-38.0859375,28.80859375
0,1734117341179,-3.41796875,-18.06640625,-44.43359375,15.625
1,1734117341182.9062,9.765625,-13.671875,-46.875,15.13671875
2,1734117341186.8125,0.9765625,-14.16015625,-38.0859375,-5.859375
3,1734117341190.7188,-20.5078125,-20.01953125,-39.0625,-1.46484375
4,1734117341194.625,-3.41796875,-14.16015625,-44.43359375,-2.44140625
5,1734117341198.5312,0.48828125,-11.71875,-41.015625,27.34375
6,1734117341202.4375,-3.90625,-20.5078125,-39.55078125,42.96875
7,1734117341206.3438,-8.30078125,-28.3203125,-41.015625,4.39453125
8,1734117341210.25,-15.625,-24.90234375,-45.41015625,3.41796875
9,1734117341214.1562,-0.9765625,-15.625,-45.8984375,31.25
10,1734117341218.0625,11.71875,-19.53125,-47.8515625,36.1328125
11,1734117341221.9688,-7.32421875,-23.4375,-49.8046875,-4.39453125
0,1734117341225.875,-22.94921875,-20.99609375,-46.38671875,-6.8359375
1,1734117341229.7812,-14.16015625,-20.99609375,-42.96875,-17.08984375
2,1734117341233.6875,-20.5078125,-19.04296875,-39.55078125,-10.7421875
3,1734117341237.5938,-28.80859375,-18.06640625,-39.55078125,4.8828125
4,1734117341241.5,-0.48828125,-32.71484375,-45.41015625,-0.9765625
5,1734117341245.4062,6.8359375,-30.76171875,-48.33984375,-2.9296875
6,1734117341249.3125,-1.46484375,-17.578125,-45.41015625,1.953125
7,1734117341253.2188,17.08984375,-22.4609375,-44.43359375,37.109375
8,1734117341257.125,19.04296875,-20.5078125,-48.33984375,39.0625
9,1734117341261.0312,19.04296875,-17.578125,-50.29296875,30.76171875
10,1734117341264.9375,13.18359375,-18.5546875,-45.41015625,34.66796875
11,1734117341268.8438,10.25390625,-15.13671875,-43.9453125,23.92578125
0,1734117341272.75,8.7890625,-15.13671875,-40.0390625,3.41796875
1,1734117341276.6562,-9.27734375,-15.625,-38.57421875,-7.8125
2,1734117341280.5625,6.8359375,-16.11328125,-36.62109375,14.16015625
3,1734117341284.4688,17.08984375,-12.6953125,-34.66796875,44.43359375
4,1734117341288.375,19.53125,-21.484375,-36.62109375,23.4375
5,1734117341292.2812,35.64453125,-28.3203125,-43.45703125,20.99609375
6,1734117341296.1875,18.5546875,-14.6484375,-48.828125,49.8046875
7,1734117341300.0938,19.53125,-15.625,-48.828125,45.41015625
8,1734117341304,34.1796875,-14.6484375,-41.9921875,46.38671875
9,1734117341307.9062,3.41796875,-11.71875,-34.1796875,45.41015625
10,1734117341311.8125,-16.11328125,-25.390625,-36.1328125,22.94921875
11,1734117341315.7188,2.9296875,-31.73828125,-32.2265625,-18.06640625
0,1734117341319.625,2.9296875,-27.34375,-32.2265625,-19.53125
1,1734117341323.5312,-4.39453125,-33.69140625,-38.57421875,19.53125
2,1734117341327.4375,8.30078125,-35.64453125,-32.71484375,24.90234375
3,1734117341331.3438,14.6484375,-22.4609375,-26.85546875,37.59765625
4,1734117341335.25,12.6953125,-17.578125,-34.1796875,38.57421875
5,1734117341339.1562,7.32421875,-13.671875,-40.52734375,23.92578125
6,1734117341343.0625,2.44140625,-16.6015625,-39.0625,12.20703125
7,1734117341346.9688,-14.16015625,-25.390625,-40.52734375,-3.41796875
8,1734117341350.875,-8.7890625,-22.94921875,-37.109375,12.20703125
9,1734117341354.7812,-14.16015625,-20.99609375,-32.71484375,18.06640625
10,1734117341358.6875,-36.62109375,-31.73828125,-36.1328125,-9.27734375
11,1734117341362.5938,-15.13671875,-37.109375,-34.1796875,6.34765625
0,1734117341366.5,-4.39453125,-40.52734375,-30.76171875,15.625
1,1734117341370.4062,-11.71875,-44.43359375,-30.2734375,1.953125
2,1734117341374.3125,-22.4609375,-46.38671875,-33.69140625,13.18359375
3,1734117341378.2188,-11.23046875,-30.76171875,-41.015625,17.578125
4,1734117341382.125,1.953125,-16.6015625,-39.55078125,20.01953125
5,1734117341386.0312,8.30078125,-18.5546875,-30.2734375,35.64453125
6,1734117341389.9375,-0.9765625,-18.06640625,-24.90234375,34.1796875
7,1734117341393.8438,-25.390625,-22.4609375,-24.90234375,20.99609375
8,1734117341397.75,-21.97265625,-24.4140625,-18.5546875,34.66796875
9,1734117341401.6562,-16.11328125,-25.390625,-21.97265625,37.109375
10,1734117341405.5625,-17.578125,-25.87890625,-31.25,10.25390625
11,1734117341409.4688,-11.23046875,-22.4609375,-28.3203125,6.34765625
0,1734117341413.375,-6.34765625,-17.578125,-32.71484375,17.08984375
1,1734117341417.2812,9.27734375,-23.92578125,-41.015625,23.92578125
2,1734117341421.1875,36.1328125,-18.06640625,-40.52734375,33.203125
3,1734117341425.0938,41.50390625,-8.30078125,-33.69140625,59.08203125
4,1734117341429,34.66796875,-10.25390625,-36.1328125,45.8984375
5,1734117341432.9062,22.4609375,-14.16015625,-38.57421875,7.32421875
6,1734117341436.8125,1.46484375,-20.99609375,-34.1796875,0.9765625
7,1734117341440.7188,-1.46484375,-24.4140625,-29.296875,46.38671875
8,1734117341444.625,-1.953125,-25.87890625,-29.78515625,47.8515625
9,1734117341448.5312,-0.48828125,-32.2265625,-37.109375,21.484375
10,1734117341452.4375,9.765625,-30.76171875,-33.203125,20.5078125
11,1734117341456.3438,10.7421875,-21.97265625,-36.62109375,24.90234375
0,1734117341460.25,15.13671875,-28.80859375,-49.31640625,32.71484375
1,1734117341464.1562,6.34765625,-38.57421875,-46.875,33.203125
2,1734117341468.0625,8.30078125,-28.3203125,-37.109375,24.90234375
3,1734117341471.9688,14.16015625,-26.85546875,-37.109375,27.83203125
4,1734117341475.875,9.765625,-28.3203125,-48.33984375,13.671875
5,1734117341479.7812,18.06640625,-23.4375,-46.38671875,-21.484375
6,1734117341483.6875,25.87890625,-22.94921875,-41.015625,-13.18359375
7,1734117341487.5938,22.94921875,-19.04296875,-41.9921875,42.96875
8,1734117341491.5,9.27734375,-6.34765625,-46.875,44.43359375
9,1734117341495.4062,15.13671875,-7.32421875,-44.43359375,24.4140625
10,1734117341499.3125,22.4609375,-18.06640625,-39.0625,32.71484375
11,1734117341503.2188,10.25390625,-11.71875,-39.55078125,26.85546875
0,1734117341507.125,3.41796875,-10.7421875,-40.0390625,42.96875
1,1734117341511.0312,16.11328125,-20.99609375,-38.57421875,41.015625
2,1734117341514.9375,21.484375,-30.2734375,-35.15625,14.6484375
3,1734117341518.8438,17.578125,-25.390625,-32.2265625,34.1796875
4,1734117341522.75,15.625,-14.16015625,-30.2734375,40.52734375
5,1734117341526.6562,3.41796875,-14.6484375,-27.34375,37.109375
6,1734117341530.5625,-0.48828125,-18.06640625,-27.34375,44.43359375
7,1734117341534.4688,15.625,-18.06640625,-31.73828125,35.15625
8,1734117341538.375,7.32421875,-19.04296875,-34.1796875,24.90234375
9,1734117341542.2812,-5.859375,-27.83203125,-34.66796875,23.4375
10,1734117341546.1875,5.859375,-32.71484375,-38.0859375,14.16015625
11,1734117341550.0938,11.71875,-25.87890625,-38.57421875,17.578125
0,1734117341554,9.27734375,-16.6015625,-34.66796875,21.97265625
1,1734117341557.9062,-7.32421875,-15.13671875,-33.69140625,16.11328125
2,1734117341561.8125,2.9296875,-16.11328125,-34.66796875,16.11328125
3,1734117341565.7188,12.6953125,-17.08984375,-34.1796875,12.20703125
4,1734117341569.625,3.90625,-21.97265625,-39.0625,21.484375
5,1734117341573.5312,7.32421875,-20.99609375,-42.96875,22.4609375
6,1734117341577.4375,18.5546875,-20.5078125,-39.0625,34.1796875
7,1734117341581.3438,23.92578125,-20.01953125,-41.50390625,35.64453125
8,1734117341585.25,21.484375,-10.7421875,-39.55078125,27.83203125
9,1734117341589.1562,24.90234375,-8.30078125,-32.2265625,39.0625
10,1734117341593.0625,27.34375,-13.671875,-33.203125,42.96875
11,1734117341596.9688,11.71875,-18.06640625,-40.0390625,19.04296875
0,1734117341600.875,3.41796875,-19.04296875,-38.57421875,22.94921875
1,1734117341604.7812,1.46484375,-16.11328125,-35.15625,28.3203125
2,1734117341608.6875,4.39453125,-13.671875,-37.109375,28.3203125
3,1734117341612.5938,16.11328125,-13.18359375,-35.64453125,33.69140625
4,1734117341616.5,13.18359375,-17.578125,-32.71484375,2.9296875
5,1734117341620.4062,21.484375,-16.11328125,-30.76171875,30.2734375
6,1734117341624.3125,25.390625,-7.8125,-33.203125,45.8984375
7,1734117341628.2188,9.765625,-5.37109375,-35.15625,16.11328125
8,1734117341632.125,4.39453125,-7.8125,-32.2265625,24.4140625
9,1734117341636.0312,12.6953125,-7.32421875,-27.34375,32.2265625
10,1734117341639.9375,16.6015625,-7.8125,-26.85546875,36.1328125
11,1734117341643.8438,23.92578125,-8.7890625,-30.76171875,29.296875
0,1734117341647.75,25.87890625,-13.671875,-28.80859375,34.1796875
1,1734117341651.6562,14.16015625,-21.484375,-28.80859375,47.8515625
2,1734117341655.5625,4.8828125,-13.671875,-34.1796875,40.0390625
3,1734117341659.4688,3.41796875,-4.8828125,-35.15625,21.484375
4,1734117341663.375,3.90625,-5.37109375,-35.15625,23.92578125
5,1734117341667.2812,-9.27734375,-9.765625,-34.1796875,20.99609375
6,1734117341671.1875,-5.37109375,-10.25390625,-29.296875,4.8828125
7,1734117341675.0938,2.9296875,-9.765625,-30.76171875,-9.27734375
8,1734117341679,2.9296875,-18.5546875,-37.109375,-1.953125
9,1734117341682.9062,-8.30078125,-23.92578125,-36.1328125,47.36328125
10,1734117341686.8125,-18.06640625,-18.06640625,-36.1328125,31.73828125
11,1734117341690.7188,-7.32421875,-20.5078125,-38.0859375,-5.37109375
0,1734117341694.625,-2.9296875,-23.4375,-35.15625,4.8828125
1,1734117341698.5312,-4.8828125,-18.5546875,-35.64453125,12.6953125
2,1734117341702.4375,-9.27734375,-18.06640625,-36.62109375,-3.90625
3,1734117341706.3438,-13.671875,-16.11328125,-37.59765625,-1.953125
4,1734117341710.25,-15.625,-10.25390625,-35.64453125,6.8359375
5,1734117341714.1562,-13.671875,-13.18359375,-26.3671875,11.71875
6,1734117341718.0625,-5.37109375,-21.484375,-27.83203125,16.11328125
7,1734117341721.9688,0.48828125,-11.71875,-38.57421875,12.20703125
8,1734117341725.875,9.27734375,0,-36.1328125,23.4375
9,1734117341729.7812,11.71875,3.90625,-38.57421875,32.2265625
10,1734117341733.6875,11.71875,1.953125,-40.52734375,26.3671875
11,1734117341737.5938,7.32421875,-4.39453125,-31.73828125,28.80859375
0,1734117341741.5,9.765625,-9.27734375,-32.2265625,39.0625
1,1734117341745.4062,18.06640625,-12.20703125,-41.9921875,39.55078125
2,1734117341749.3125,12.20703125,-12.20703125,-42.48046875,35.64453125
