index,unixTimestamp,TP9,AF7,AF8,TP10
0,1734037437681.5,-0.48828125,-0.48828125,0,0
1,1734037437685.4062,0.48828125,0.48828125,-4.39453125,0.9765625
2,1734037437689.3125,-0.48828125,-3.41796875,23.92578125,-6.8359375
3,1734037437693.2188,0.48828125,3.90625,-87.40234375,13.671875
4,1734037437697.125,19.04296875,-9.765625,301.26953125,-44.921875
5,1734037437701.0312,23.4375,-64.94140625,171.38671875,-163.0859375
6,1734037437704.9375,87.40234375,-35.64453125,-475.5859375,-24.90234375
7,1734037437708.8438,92.28515625,54.19921875,-301.7578125,55.6640625
8,1734037437712.75,54.6875,71.2890625,-262.20703125,-21.97265625
9,1734037437716.6562,42.96875,20.99609375,-228.515625,-101.07421875
10,1734037437720.5625,87.890625,16.11328125,-182.12890625,-47.36328125
11,1734037437724.4688,105.95703125,84.47265625,-203.125,39.55078125
0,1734037437728.375,65.91796875,84.9609375,-228.515625,9.765625
1,1734037437732.2812,67.3828125,21.484375,-197.75390625,-65.91796875
2,1734037437736.1875,42.96875,34.66796875,-185.05859375,-109.86328125
3,1734037437740.0938,46.38671875,103.02734375,-209.9609375,-30.2734375
4,1734037437744,98.14453125,102.5390625,-204.1015625,52.24609375
5,1734037437747.9062,129.39453125,27.83203125,-163.57421875,26.85546875
6,1734037437751.8125,91.796875,9.27734375,-140.625,-59.08203125
7,1734037437755.7188,59.5703125,90.33203125,-181.640625,-47.8515625
8,1734037437759.625,82.03125,99.12109375,-216.796875,10.25390625
9,1734037437763.5312,105.95703125,19.53125,-187.01171875,16.6015625
10,1734037437767.4375,66.89453125,-12.20703125,-159.1796875,-83.984375
11,1734037437771.3438,15.625,62.5,-185.05859375,-111.328125
0,1734037437775.25,79.58984375,53.7109375,-187.01171875,24.90234375
1,1734037437779.1562,98.14453125,19.53125,-164.0625,38.0859375
2,1734037437783.0625,8.7890625,28.80859375,-159.66796875,-102.05078125
3,1734037437786.9688,-27.83203125,50.78125,-169.43359375,-126.46484375
4,1734037437790.875,56.640625,40.0390625,-167.96875,41.9921875
5,1734037437794.7812,132.8125,12.20703125,-144.04296875,118.1640625
6,1734037437798.6875,84.47265625,12.20703125,-138.671875,-1.953125
7,1734037437802.5938,29.78515625,41.015625,-153.3203125,-91.30859375
8,1734037437806.5,61.03515625,83.49609375,-168.45703125,8.7890625
9,1734037437810.4062,168.45703125,21.97265625,-139.16015625,172.36328125
10,1734037437814.3125,120.1171875,11.23046875,-119.62890625,76.66015625
11,1734037437818.2188,-70.80078125,78.61328125,-170.8984375,-183.59375
0,1734037437822.125,10.7421875,49.31640625,-174.8046875,-42.96875
1,1734037437826.0312,113.28125,42.96875,-159.66796875,130.37109375
2,1734037437829.9375,78.61328125,39.0625,-167.48046875,38.0859375
3,1734037437833.8438,27.34375,8.7890625,-165.52734375,-115.234375
4,1734037437837.75,55.17578125,8.7890625,-147.4609375,-35.15625
5,1734037437841.6562,107.91015625,22.94921875,-139.16015625,122.0703125
6,1734037437845.5625,75.68359375,25.87890625,-147.94921875,79.1015625
7,1734037437849.4688,7.8125,21.484375,-166.015625,-92.28515625
8,1734037437853.375,31.73828125,-5.37109375,-154.296875,-62.01171875
9,1734037437857.2812,98.14453125,20.01953125,-141.6015625,92.28515625
10,1734037437861.1875,56.640625,68.84765625,-169.43359375,36.62109375
11,1734037437865.0938,9.27734375,35.15625,-164.55078125,-73.73046875
0,1734037437869,58.10546875,-15.13671875,-119.140625,-34.66796875
1,1734037437872.9062,96.6796875,16.11328125,-112.3046875,84.47265625
2,1734037437876.8125,27.83203125,87.40234375,-172.8515625,19.53125
3,1734037437880.7188,19.53125,40.52734375,-173.828125,-33.69140625
4,1734037437884.625,-0.9765625,23.4375,-133.30078125,-78.61328125
5,1734037437888.5312,18.06640625,64.453125,-128.90625,4.8828125
6,1734037437892.4375,39.0625,103.515625,-149.4140625,80.078125
7,1734037437896.3438,37.109375,82.03125,-152.34375,25.390625
8,1734037437900.25,-0.48828125,62.98828125,-137.6953125,-88.37890625
9,1734037437904.1562,-20.01953125,95.703125,-150.390625,-82.03125
10,1734037437908.0625,36.62109375,88.37890625,-160.64453125,44.43359375
11,1734037437911.9688,57.12890625,68.84765625,-158.69140625,36.1328125
0,1734037437915.875,123.046875,-24.90234375,-114.2578125,41.50390625
1,1734037437919.7812,81.54296875,13.18359375,-110.83984375,-6.34765625
2,1734037437923.6875,11.23046875,104.00390625,-182.6171875,-27.34375
3,1734037437927.5938,92.28515625,44.43359375,-166.50390625,99.12109375
4,1734037437931.5,62.5,24.90234375,-134.27734375,28.3203125
5,1734037437935.4062,-8.30078125,39.55078125,-137.20703125,-93.75
6,1734037437939.3125,45.41015625,47.36328125,-148.92578125,1.953125
7,1734037437943.2188,139.6484375,16.6015625,-156.25,100.5859375
8,1734037437947.125,118.1640625,5.37109375,-139.16015625,34.1796875
9,1734037437951.0312,-44.921875,52.734375,-160.15625,-167.96875
10,1734037437954.9375,-51.26953125,47.8515625,-182.6171875,-111.328125
11,1734037437958.8438,53.22265625,27.34375,-159.66796875,95.21484375
0,1734037437962.75,38.57421875,39.55078125,-162.109375,49.31640625
1,1734037437966.6562,-42.96875,51.7578125,-173.33984375,-147.4609375
2,1734037437970.5625,-13.671875,55.6640625,-163.57421875,-109.375
3,1734037437974.4688,53.22265625,72.75390625,-162.59765625,42.96875
4,1734037437978.375,40.52734375,67.3828125,-168.45703125,33.203125
5,1734037437982.2812,5.859375,26.3671875,-151.3671875,-58.10546875
6,1734037437986.1875,-18.06640625,50.29296875,-140.625,-98.14453125
7,1734037437990.0938,79.58984375,32.71484375,-140.13671875,90.33203125
8,1734037437994,119.140625,28.80859375,-118.65234375,183.59375
9,1734037437997.9062,-42.48046875,106.93359375,-157.71484375,-65.4296875
10,1734037438001.8125,-66.89453125,53.22265625,-164.0625,-148.92578125
11,1734037438005.7188,18.5546875,41.015625,-142.08984375,-0.9765625
0,1734037438009.625,26.3671875,74.21875,-162.59765625,47.36328125
1,1734037438013.5312,23.4375,51.26953125,-161.1328125,-3.41796875
2,1734037438017.4375,23.92578125,18.06640625,-130.859375,-70.80078125
3,1734037438021.3438,30.76171875,36.62109375,-132.8125,-13.18359375
4,1734037438025.25,59.08203125,66.40625,-156.25,82.03125
5,1734037438029.1562,55.6640625,47.36328125,-149.90234375,66.89453125
6,1734037438033.0625,18.5546875,1.953125,-131.34765625,-27.83203125
7,1734037438036.9688,41.50390625,-0.9765625,-105.95703125,-8.7890625
8,1734037438040.875,14.6484375,70.80078125,-141.11328125,29.296875
9,1734037438044.7812,-6.8359375,81.54296875,-167.96875,12.20703125
10,1734037438048.6875,39.55078125,5.859375,-119.62890625,-10.7421875
11,1734037438052.5938,6.8359375,11.23046875,-100.5859375,-48.828125
0,1734037438056.5,-28.3203125,97.65625,-140.13671875,-9.27734375
1,1734037438060.4062,28.3203125,93.75,-141.6015625,79.1015625
2,1734037438064.3125,27.83203125,59.08203125,-115.234375,33.69140625
3,1734037438068.2188,-41.015625,61.03515625,-122.55859375,-103.02734375
4,1734037438072.125,-17.578125,71.77734375,-136.71875,-23.92578125
5,1734037438076.0312,47.8515625,64.453125,-120.1171875,113.28125
6,1734037438079.9375,87.40234375,21.97265625,-78.61328125,120.60546875
7,1734037438083.8438,30.76171875,37.109375,-66.89453125,5.37109375
8,1734037438087.75,-62.5,118.65234375,-118.65234375,-82.51953125
9,1734037438091.6562,27.83203125,92.7734375,-134.27734375,36.1328125
10,1734037438095.5625,78.61328125,51.26953125,-100.09765625,85.44921875
11,1734037438099.4688,-10.25390625,56.15234375,-106.4453125,-84.47265625
0,1734037438103.375,-31.25,70.3125,-130.37109375,-122.0703125
1,1734037438107.2812,63.4765625,50.29296875,-112.3046875,63.96484375
2,1734037438111.1875,115.72265625,30.76171875,-97.65625,128.41796875
3,1734037438115.0938,42.48046875,27.83203125,-105.95703125,-26.3671875
4,1734037438119,-0.48828125,12.20703125,-106.4453125,-97.65625
5,1734037438122.9062,58.10546875,20.01953125,-111.81640625,37.59765625
6,1734037438126.8125,159.1796875,-38.0859375,-86.42578125,199.70703125
7,1734037438130.7188,53.22265625,3.90625,-98.6328125,42.96875
8,1734037438134.625,-85.9375,59.5703125,-145.5078125,-204.58984375
9,1734037438138.5312,21.484375,23.4375,-118.1640625,-37.109375
10,1734037438142.4375,64.94140625,32.2265625,-104.98046875,99.12109375
11,1734037438146.3438,12.6953125,34.66796875,-121.09375,7.32421875
0,1734037438150.25,-7.32421875,-2.44140625,-107.421875,-99.609375
1,1734037438154.1562,26.3671875,-16.11328125,-82.03125,-19.04296875
2,1734037438158.0625,27.83203125,35.15625,-103.515625,74.21875
3,1734037438161.9688,-1.953125,65.91796875,-129.8828125,7.32421875
4,1734037438165.875,6.8359375,18.06640625,-102.5390625,-64.94140625
5,1734037438169.7812,18.06640625,6.8359375,-77.63671875,-52.24609375
6,1734037438173.6875,24.4140625,51.26953125,-90.8203125,33.203125
7,1734037438177.5938,26.3671875,38.57421875,-107.421875,58.59375
8,1734037438181.5,-3.90625,27.34375,-109.375,-44.921875
9,1734037438185.4062,42.96875,-5.37109375,-72.75390625,-46.875
10,1734037438189.3125,49.8046875,40.52734375,-85.44921875,46.875
11,1734037438193.2188,-37.109375,103.515625,-156.73828125,7.32421875
0,1734037438197.125,-1.953125,39.55078125,-139.16015625,-14.16015625
1,1734037438201.0312,-12.6953125,34.1796875,-118.65234375,-110.3515625
2,1734037438204.9375,-16.6015625,61.03515625,-128.90625,-83.984375
3,1734037438208.8438,32.71484375,60.546875,-137.6953125,54.19921875
4,1734037438212.75,66.40625,38.0859375,-136.23046875,62.01171875
5,1734037438216.6562,78.61328125,-2.9296875,-97.16796875,-4.39453125
6,1734037438220.5625,0.48828125,52.24609375,-113.28125,-65.4296875
7,1734037438224.4688,-19.04296875,90.8203125,-161.62109375,-5.859375
8,1734037438228.375,63.4765625,28.80859375,-138.671875,84.9609375
9,1734037438232.2812,39.55078125,7.8125,-114.2578125,-8.7890625
10,1734037438236.1875,-53.22265625,60.546875,-135.7421875,-131.8359375
11,1734037438240.0938,4.39453125,61.5234375,-141.6015625,3.90625
0,1734037438244,63.96484375,50.29296875,-125.48828125,92.7734375
1,1734037438247.9062,23.4375,51.7578125,-120.60546875,-33.203125
2,1734037438251.8125,-23.92578125,35.64453125,-125.48828125,-147.94921875
3,1734037438255.7188,6.34765625,39.0625,-130.37109375,-31.25
4,1734037438259.625,69.82421875,37.109375,-124.0234375,75.68359375
5,1734037438263.5312,52.24609375,24.90234375,-108.3984375,1.953125
6,1734037438267.4375,2.9296875,19.53125,-111.81640625,-110.3515625
7,1734037438271.3438,-2.9296875,34.1796875,-118.65234375,-59.5703125
8,1734037438275.25,76.171875,1.46484375,-103.515625,127.44140625
9,1734037438279.1562,134.765625,-12.6953125,-87.40234375,150.390625
10,1734037438283.0625,-19.04296875,75.68359375,-140.625,-143.5546875
11,1734037438286.9688,-55.6640625,55.17578125,-154.78515625,-184.5703125
0,1734037438290.875,29.296875,26.3671875,-120.1171875,10.25390625
1,1734037438294.7812,31.25,31.73828125,-128.41796875,-2.9296875
2,1734037438298.6875,15.13671875,-14.16015625,-128.90625,-128.41796875
3,1734037438302.5938,26.85546875,-29.78515625,-113.76953125,-157.71484375
4,1734037438306.5,73.73046875,4.8828125,-111.81640625,-12.20703125
5,1734037438310.4062,78.125,9.765625,-108.3984375,68.84765625
6,1734037438314.3125,65.4296875,-3.41796875,-99.609375,-28.80859375
7,1734037438318.2188,77.1484375,-26.85546875,-97.16796875,-124.51171875
8,1734037438322.125,126.953125,-43.9453125,-80.56640625,17.578125
9,1734037438326.0312,74.21875,26.3671875,-111.81640625,34.1796875
10,1734037438329.9375,23.4375,12.6953125,-139.16015625,-84.47265625
11,1734037438333.8438,33.203125,-44.921875,-104.98046875,-168.45703125
0,1734037438337.75,21.97265625,-22.94921875,-101.5625,-141.11328125
1,1734037438341.6562,25.390625,1.953125,-122.0703125,-46.38671875
2,1734037438345.5625,57.12890625,-19.53125,-115.234375,-26.85546875
3,1734037438349.4688,66.89453125,-41.015625,-91.30859375,-95.21484375
4,1734037438353.375,43.9453125,-41.015625,-93.26171875,-119.62890625
5,1734037438357.2812,53.22265625,-50.78125,-109.86328125,6.34765625
6,1734037438361.1875,57.6171875,-59.08203125,-106.4453125,26.85546875
7,1734037438365.0938,106.93359375,-137.6953125,-73.73046875,-24.90234375
8,1734037438369,68.84765625,-136.71875,-61.03515625,-94.23828125
9,1734037438372.9062,-64.453125,-31.73828125,-125.48828125,-119.140625
10,1734037438376.8125,-6.34765625,-70.3125,-129.8828125,3.41796875
11,1734037438380.7188,41.9921875,-102.5390625,-85.9375,-10.25390625
0,1734037438384.625,-29.296875,-77.63671875,-100.09765625,-171.875
1,1734037438388.5312,-61.5234375,-63.96484375,-124.51171875,-121.58203125
2,1734037438392.4375,-16.11328125,-84.47265625,-109.86328125,40.52734375
3,1734037438396.3438,14.6484375,-91.30859375,-86.9140625,32.71484375
4,1734037438400.25,-39.0625,-70.3125,-92.7734375,-141.6015625
5,1734037438404.1562,-46.38671875,-71.2890625,-96.6796875,-112.3046875
6,1734037438408.0625,4.8828125,-85.44921875,-84.47265625,73.73046875
7,1734037438411.9688,5.37109375,-91.796875,-73.2421875,73.2421875
8,1734037438415.875,-87.890625,-57.6171875,-97.16796875,-140.13671875
9,1734037438419.7812,-112.79296875,-81.54296875,-104.00390625,-179.6875
10,1734037438423.6875,-75.68359375,-97.16796875,-87.890625,-5.37109375
11,1734037438427.5938,-60.546875,-72.75390625,-93.26171875,33.203125
0,1734037438431.5,-54.6875,-77.63671875,-94.23828125,-77.1484375
1,1734037438435.4062,-65.4296875,-76.171875,-92.7734375,-146.484375
2,1734037438439.3125,-42.48046875,-60.05859375,-98.6328125,-12.20703125
3,1734037438443.2188,-41.9921875,-37.59765625,-114.74609375,48.828125
4,1734037438447.125,-69.3359375,-42.48046875,-123.53515625,-62.5
5,1734037438451.0312,-50.29296875,-66.89453125,-91.796875,-115.72265625
6,1734037438454.9375,-60.546875,-30.2734375,-75.68359375,-34.1796875
7,1734037438458.8438,-69.82421875,-3.90625,-87.40234375,64.94140625
8,1734037438462.75,-69.3359375,4.8828125,-104.00390625,8.7890625
9,1734037438466.6562,-58.10546875,-0.9765625,-100.5859375,-131.34765625
10,1734037438470.5625,8.7890625,-63.4765625,-67.87109375,-31.25
11,1734037438474.4688,8.30078125,-51.7578125,-54.6875,140.13671875
0,1734037438478.375,-110.3515625,29.78515625,-110.3515625,1.953125
1,1734037438482.2812,-102.5390625,-5.37109375,-125,-118.1640625
2,1734037438486.1875,-61.03515625,-19.53125,-95.21484375,-97.16796875
3,1734037438490.0938,-47.36328125,13.671875,-89.35546875,34.66796875
4,1734037438494,-32.2265625,16.11328125,-92.28515625,84.47265625
5,1734037438497.9062,-7.32421875,-25.87890625,-82.03125,11.23046875
6,1734037438501.8125,40.0390625,-59.5703125,-41.015625,-0.9765625
7,1734037438505.7188,-42.96875,36.1328125,-76.171875,4.39453125
8,1734037438509.625,-82.51953125,64.453125,-130.37109375,19.04296875
9,1734037438513.5312,-18.5546875,-7.32421875,-89.84375,39.55078125
10,1734037438517.4375,-40.0390625,-15.625,-73.2421875,-81.54296875
11,1734037438521.3438,-74.70703125,17.08984375,-96.19140625,-80.56640625
0,1734037438525.25,-53.7109375,9.765625,-102.05078125,62.01171875
1,1734037438529.1562,-13.18359375,-31.73828125,-91.796875,82.51953125
2,1734037438533.0625,-26.85546875,-36.1328125,-87.40234375,-70.80078125
3,1734037438536.9688,-55.6640625,-20.99609375,-95.21484375,-105.95703125
4,1734037438540.875,-28.80859375,-19.53125,-94.23828125,66.40625
5,1734037438544.7812,5.859375,-41.50390625,-76.66015625,140.13671875
6,1734037438548.6875,-34.1796875,-38.0859375,-74.70703125,-10.25390625
7,1734037438552.5938,-86.9140625,-20.5078125,-81.54296875,-113.76953125
8,1734037438556.5,-79.1015625,-12.6953125,-89.84375,1.953125
9,1734037438560.4062,-9.27734375,-59.08203125,-77.63671875,147.94921875
10,1734037438564.3125,-6.34765625,-68.84765625,-59.5703125,66.89453125
11,1734037438568.2188,-158.69140625,2.44140625,-110.83984375,-194.3359375
0,1734037438572.125,-133.30078125,-10.25390625,-123.53515625,-71.77734375
1,1734037438576.0312,-54.6875,-18.06640625,-107.91015625,87.40234375
2,1734037438579.9375,-76.171875,-8.7890625,-109.375,8.30078125
3,1734037438583.8438,-86.9140625,-17.08984375,-98.14453125,-118.1640625
4,1734037438587.75,-55.6640625,-23.4375,-89.84375,-41.50390625
5,1734037438591.6562,-14.16015625,-25.87890625,-82.51953125,121.09375
6,1734037438595.5625,-30.2734375,12.6953125,-80.078125,69.3359375
7,1734037438599.4688,-71.77734375,39.55078125,-93.26171875,-104.98046875
8,1734037438603.375,-34.66796875,-10.7421875,-87.890625,-64.453125
9,1734037438607.2812,40.0390625,-17.578125,-60.05859375,156.73828125
10,1734037438611.1875,-45.41015625,80.078125,-93.75,83.0078125
11,1734037438615.0938,-82.03125,52.24609375,-122.55859375,-82.51953125
0,1734037438619,-36.62109375,-11.71875,-84.47265625,-96.19140625
1,1734037438622.9062,-45.41015625,39.0625,-85.9375,7.32421875
2,1734037438626.8125,-44.43359375,76.66015625,-104.00390625,68.84765625
3,1734037438630.7188,-23.4375,58.10546875,-88.8671875,4.8828125
4,1734037438634.625,-7.32421875,24.4140625,-69.3359375,-69.3359375
5,1734037438638.5312,-13.18359375,25.390625,-77.63671875,7.8125
6,1734037438642.4375,-21.97265625,45.41015625,-100.09765625,96.6796875
7,1734037438646.3438,-11.71875,36.1328125,-97.65625,62.98828125
8,1734037438650.25,-13.671875,27.83203125,-74.70703125,-49.31640625
9,1734037438654.1562,-90.33203125,79.58984375,-95.703125,-93.26171875
10,1734037438658.0625,-70.80078125,67.3828125,-114.74609375,38.57421875
11,1734037438661.9688,-23.4375,31.73828125,-98.6328125,82.51953125
0,1734037438665.875,6.8359375,-20.01953125,-78.125,10.7421875
1,1734037438669.7812,-48.828125,25.390625,-83.984375,-73.2421875
2,1734037438673.6875,-132.32421875,117.1875,-142.578125,-75.1953125
3,1734037438677.5938,-50.29296875,64.94140625,-124.51171875,29.78515625
4,1734037438681.5,-32.71484375,35.15625,-93.75,-47.36328125
5,1734037438685.4062,-62.5,47.8515625,-94.7265625,-141.6015625
6,1734037438689.3125,-53.7109375,89.84375,-109.86328125,-33.203125
7,1734037438693.2188,0.9765625,76.171875,-112.79296875,101.5625
8,1734037438697.125,0.48828125,61.03515625,-93.26171875,49.8046875
9,1734037438701.0312,-113.76953125,93.26171875,-111.328125,-161.1328125
10,1734037438704.9375,-100.5859375,71.2890625,-126.953125,-101.5625
11,1734037438708.8438,-13.671875,48.828125,-113.76953125,76.171875
0,1734037438712.75,-8.7890625,34.66796875,-115.234375,31.73828125
1,1734037438716.6562,-37.59765625,12.6953125,-117.67578125,-113.28125
2,1734037438720.5625,-65.4296875,28.80859375,-114.74609375,-118.1640625
3,1734037438724.4688,-13.18359375,13.671875,-103.02734375,66.40625
4,1734037438728.375,-1.953125,9.27734375,-101.07421875,91.30859375
5,1734037438732.2812,-44.921875,9.765625,-109.86328125,-63.4765625
6,1734037438736.1875,-54.6875,21.97265625,-101.07421875,-108.3984375
7,1734037438740.0938,25.390625,12.6953125,-82.51953125,86.42578125
8,1734037438744,22.94921875,43.9453125,-83.0078125,125
9,1734037438747.9062,-90.8203125,101.07421875,-121.09375,-95.703125
10,1734037438751.8125,-56.640625,41.015625,-99.12109375,-133.30078125
11,1734037438755.7188,-55.17578125,56.640625,-93.75,-27.34375
0,1734037438759.625,-64.453125,75.1953125,-105.95703125,46.38671875
1,1734037438763.5312,-50.78125,44.43359375,-99.609375,-4.8828125
2,1734037438767.4375,-44.921875,0.48828125,-89.35546875,-110.83984375
3,1734037438771.3438,-36.1328125,-15.13671875,-83.49609375,-51.7578125
4,1734037438775.25,-45.41015625,-0.48828125,-101.07421875,55.17578125
5,1734037438779.1562,-36.1328125,-5.37109375,-102.5390625,35.64453125
6,1734037438783.0625,-25.87890625,-30.76171875,-90.33203125,-82.03125
7,1734037438786.9688,5.37109375,-51.26953125,-62.98828125,-28.3203125
8,1734037438790.875,-74.70703125,30.2734375,-105.95703125,11.71875
9,1734037438794.7812,-111.81640625,50.78125,-151.3671875,-35.15625
10,1734037438798.6875,-36.1328125,-1.953125,-109.375,-63.96484375
11,1734037438802.5938,-57.12890625,20.99609375,-93.75,-121.09375
0,1734037438806.5,-69.82421875,56.15234375,-116.69921875,-27.83203125
1,1734037438810.4062,-36.1328125,49.8046875,-124.0234375,53.7109375
2,1734037438814.3125,5.859375,0,-94.7265625,19.04296875
3,1734037438818.2188,-56.640625,11.23046875,-92.28515625,-119.62890625
4,1734037438822.125,-93.75,41.50390625,-124.51171875,-73.2421875
5,1734037438826.0312,-33.69140625,26.85546875,-125.9765625,76.66015625
6,1734037438829.9375,26.3671875,-15.625,-95.703125,86.9140625
7,1734037438833.8438,-17.08984375,-1.46484375,-93.75,-67.3828125
8,1734037438837.75,-89.35546875,65.4296875,-131.34765625,-128.41796875
9,1734037438841.6562,-37.59765625,68.84765625,-135.25390625,15.13671875
10,1734037438845.5625,29.78515625,10.25390625,-94.7265625,91.796875
11,1734037438849.4688,-34.66796875,6.8359375,-87.40234375,-64.94140625
0,1734037438853.375,-132.8125,63.4765625,-126.953125,-185.05859375
1,1734037438857.2812,-54.19921875,45.8984375,-114.2578125,10.7421875
2,1734037438861.1875,-9.765625,39.0625,-93.75,82.51953125
3,1734037438865.0938,-36.1328125,41.015625,-90.33203125,-57.12890625
4,1734037438869,-40.0390625,47.36328125,-85.44921875,-116.69921875
5,1734037438872.9062,15.625,30.76171875,-75.1953125,56.15234375
6,1734037438876.8125,39.0625,23.92578125,-74.70703125,146.97265625
7,1734037438880.7188,-33.203125,56.15234375,-100.09765625,-31.25
8,1734037438884.625,-54.19921875,19.53125,-97.65625,-143.06640625
9,1734037438888.5312,0.9765625,-11.71875,-71.2890625,24.90234375
10,1734037438892.4375,10.7421875,25.87890625,-81.54296875,116.69921875
11,1734037438896.3438,-28.80859375,77.63671875,-101.5625,0.48828125
0,1734037438900.25,-22.4609375,42.48046875,-85.9375,-110.3515625
1,1734037438904.1562,4.39453125,25.87890625,-72.75390625,-54.6875
2,1734037438908.0625,27.83203125,62.98828125,-83.49609375,85.44921875
3,1734037438911.9688,24.90234375,51.26953125,-90.8203125,69.82421875
4,1734037438915.875,27.34375,-5.859375,-73.2421875,-31.73828125
5,1734037438919.7812,31.73828125,-18.5546875,-51.26953125,-16.11328125
6,1734037438923.6875,21.97265625,26.3671875,-65.4296875,80.56640625
7,1734037438927.5938,31.73828125,44.921875,-79.1015625,104.00390625
8,1734037438931.5,17.578125,45.41015625,-83.49609375,-9.765625
9,1734037438935.4062,51.7578125,0.9765625,-64.94140625,-25.390625
10,1734037438939.3125,62.5,17.578125,-59.5703125,84.9609375
11,1734037438943.2188,-31.73828125,82.03125,-109.375,41.50390625
0,1734037438947.125,-9.765625,40.0390625,-118.65234375,-17.08984375
1,1734037438951.0312,64.453125,-11.23046875,-66.40625,-37.109375
2,1734037438954.9375,16.6015625,57.6171875,-74.21875,-31.25
3,1734037438958.8438,2.44140625,77.63671875,-110.83984375,40.52734375
4,1734037438962.75,80.078125,13.671875,-74.70703125,94.23828125
5,1734037438966.6562,72.265625,10.7421875,-51.7578125,-20.99609375
6,1734037438970.5625,25.390625,52.734375,-64.94140625,-62.5
7,1734037438974.4688,11.71875,81.54296875,-90.8203125,37.109375
8,1734037438978.375,77.1484375,12.20703125,-81.0546875,116.2109375
9,1734037438982.2812,79.58984375,-29.78515625,-55.17578125,33.203125
10,1734037438986.1875,-42.48046875,44.921875,-91.796875,-127.9296875
11,1734037438990.0938,-20.99609375,57.6171875,-117.1875,-10.25390625
0,1734037438994,56.15234375,24.4140625,-85.44921875,123.53515625
1,1734037438997.9062,47.36328125,-6.8359375,-57.12890625,37.59765625
2,1734037439001.8125,-17.578125,-3.41796875,-69.3359375,-118.1640625
3,1734037439005.7188,-22.4609375,23.4375,-86.42578125,-21.97265625
4,1734037439009.625,42.48046875,9.27734375,-77.1484375,147.4609375
5,1734037439013.5312,41.9921875,4.39453125,-68.359375,78.61328125
6,1734037439017.4375,-14.6484375,13.671875,-72.265625,-91.796875
7,1734037439021.3438,-29.78515625,33.69140625,-77.1484375,-49.8046875
8,1734037439025.25,50.29296875,16.11328125,-68.359375,141.6015625
9,1734037439029.1562,105.95703125,-14.6484375,-48.828125,175.29296875
10,1734037439033.0625,-38.57421875,48.33984375,-92.7734375,-107.91015625
11,1734037439036.9688,-68.359375,45.41015625,-106.93359375,-151.3671875
0,1734037439040.875,1.953125,24.4140625,-83.0078125,47.8515625
1,1734037439044.7812,-0.9765625,32.2265625,-86.9140625,54.6875
2,1734037439048.6875,-4.39453125,19.04296875,-78.61328125,-57.6171875
3,1734037439052.5938,22.4609375,9.765625,-55.6640625,-79.58984375
4,1734037439056.5,35.15625,32.2265625,-61.03515625,45.41015625
5,1734037439060.4062,28.3203125,50.29296875,-75.1953125,81.54296875
6,1734037439064.3125,18.06640625,33.203125,-64.453125,-19.53125
7,1734037439068.2188,6.34765625,-2.9296875,-56.640625,-97.65625
8,1734037439072.125,39.55078125,-1.953125,-40.52734375,28.80859375
9,1734037439076.0312,-23.92578125,67.3828125,-80.078125,27.34375
10,1734037439079.9375,-37.109375,44.43359375,-115.234375,-64.94140625
11,1734037439083.8438,12.6953125,-13.671875,-71.77734375,-118.1640625
0,1734037439087.75,-6.34765625,2.9296875,-61.03515625,-96.6796875
1,1734037439091.6562,-20.5078125,28.80859375,-84.9609375,-2.9296875
2,1734037439095.5625,-3.41796875,-0.48828125,-84.47265625,-2.44140625
3,1734037439099.4688,-12.6953125,-28.80859375,-64.94140625,-112.79296875
4,1734037439103.375,-46.875,-18.06640625,-64.453125,-148.92578125
5,1734037439107.2812,-27.34375,0,-77.1484375,-6.8359375
6,1734037439111.1875,-2.44140625,21.484375,-79.58984375,33.69140625
7,1734037439115.0938,56.15234375,-35.15625,-55.6640625,-17.578125
8,1734037439119,6.34765625,-27.34375,-54.6875,-111.81640625
9,1734037439122.9062,-118.1640625,70.3125,-117.67578125,-138.671875
10,1734037439126.8125,-68.84765625,46.875,-130.37109375,-38.57421875
11,1734037439130.7188,40.0390625,-33.69140625,-69.82421875,11.71875
0,1734037439134.625,-28.3203125,3.90625,-58.59375,-133.30078125
1,1734037439138.5312,-136.71875,76.171875,-104.4921875,-176.26953125
2,1734037439142.4375,-55.6640625,23.4375,-95.703125,1.46484375
3,1734037439146.3438,-28.3203125,3.41796875,-76.66015625,-5.859375
4,1734037439150.25,-60.546875,6.34765625,-68.359375,-148.92578125
5,1734037439154.1562,-62.01171875,11.71875,-60.546875,-122.55859375
6,1734037439158.0625,-36.62109375,12.20703125,-62.98828125,28.3203125
7,1734037439161.9688,-21.484375,3.90625,-58.59375,42.48046875
8,1734037439165.875,-85.9375,23.92578125,-73.2421875,-146.97265625
9,1734037439169.7812,-108.88671875,16.6015625,-88.37890625,-199.70703125
10,1734037439173.6875,-44.921875,-5.859375,-73.73046875,2.9296875
11,1734037439177.5938,-45.41015625,7.8125,-70.80078125,47.36328125
0,1734037439181.5,-102.05078125,41.015625,-83.0078125,-126.46484375
1,1734037439185.4062,-84.47265625,19.04296875,-66.40625,-177.734375
2,1734037439189.3125,-44.43359375,25.390625,-51.7578125,-37.59765625
3,1734037439193.2188,-39.55078125,52.24609375,-60.546875,31.73828125
4,1734037439197.125,-38.0859375,34.1796875,-59.08203125,-42.48046875
5,1734037439201.0312,-40.52734375,13.18359375,-36.62109375,-134.765625
6,1734037439204.9375,-13.671875,1.46484375,-28.3203125,-23.4375
7,1734037439208.8438,-5.37109375,18.5546875,-51.26953125,81.0546875
8,1734037439212.75,-82.03125,68.359375,-87.40234375,-53.7109375
9,1734037439216.6562,-84.47265625,50.78125,-77.1484375,-168.9453125
10,1734037439220.5625,-11.23046875,9.765625,-34.66796875,-55.17578125
11,1734037439224.4688,-38.57421875,54.6875,-40.52734375,52.24609375
0,1734037439228.375,-130.37109375,83.49609375,-83.0078125,-35.64453125
1,1734037439232.2812,-91.796875,12.20703125,-63.96484375,-116.69921875
2,1734037439236.1875,-81.0546875,9.765625,-34.66796875,-134.27734375
3,1734037439240.0938,-121.09375,63.4765625,-62.98828125,-52.24609375
4,1734037439244,-93.75,55.6640625,-83.984375,10.7421875
5,1734037439247.9062,-47.36328125,-5.37109375,-45.41015625,-24.4140625
6,1734037439251.8125,-70.80078125,-0.48828125,-19.04296875,-107.91015625
7,1734037439255.7188,-135.7421875,80.078125,-61.5234375,-91.796875
8,1734037439259.625,-106.4453125,77.1484375,-81.0546875,3.41796875
9,1734037439263.5312,-42.48046875,19.53125,-43.9453125,17.08984375
10,1734037439267.4375,-82.51953125,7.32421875,-35.64453125,-114.74609375
11,1734037439271.3438,-143.06640625,44.43359375,-62.5,-120.1171875
0,1734037439275.25,-93.26171875,37.59765625,-69.82421875,11.71875
1,1734037439279.1562,-41.015625,-4.8828125,-46.875,30.76171875
2,1734037439283.0625,-91.30859375,-11.71875,-35.64453125,-118.1640625
3,1734037439286.9688,-133.7890625,16.11328125,-47.36328125,-160.64453125
4,1734037439290.875,-101.07421875,15.13671875,-61.5234375,-9.765625
5,1734037439294.7812,-10.7421875,-37.59765625,-37.109375,103.02734375
6,1734037439298.6875,-23.92578125,-10.7421875,-19.53125,-14.16015625
7,1734037439302.5938,-119.140625,41.9921875,-41.015625,-160.15625
8,1734037439306.5,-113.28125,43.45703125,-54.19921875,-41.015625
9,1734037439310.4062,-12.6953125,7.8125,-34.1796875,119.62890625
10,1734037439314.3125,-22.94921875,12.20703125,-28.80859375,23.92578125
11,1734037439318.2188,-129.8828125,49.8046875,-63.96484375,-195.80078125
0,1734037439322.125,-56.15234375,22.94921875,-52.24609375,-56.640625
1,1734037439326.0312,1.953125,26.85546875,-42.96875,93.26171875
2,1734037439329.9375,-23.4375,36.62109375,-50.29296875,20.99609375
3,1734037439333.8438,-35.15625,8.30078125,-36.62109375,-84.9609375
4,1734037439337.75,0.48828125,3.41796875,-21.484375,-3.90625
5,1734037439341.6562,43.45703125,26.85546875,-26.85546875,148.4375
6,1734037439345.5625,15.625,49.8046875,-48.33984375,102.5390625
7,1734037439349.4688,-28.3203125,45.41015625,-59.08203125,-54.6875
8,1734037439353.375,9.765625,-0.9765625,-42.48046875,-27.83203125
9,1734037439357.2812,81.0546875,-1.46484375,-21.484375,168.45703125
10,1734037439361.1875,20.01953125,76.171875,-50.78125,134.27734375
11,1734037439365.0938,19.53125,53.22265625,-67.3828125,17.08984375
0,1734037439369,75.1953125,13.671875,-38.57421875,7.32421875
1,1734037439372.9062,65.4296875,42.96875,-47.8515625,104.00390625
2,1734037439376.8125,45.41015625,51.7578125,-75.1953125,153.3203125
3,1734037439380.7188,73.2421875,11.23046875,-57.6171875,99.609375
4,1734037439384.625,83.0078125,-6.34765625,-23.4375,26.85546875
5,1734037439388.5312,60.05859375,27.34375,-31.25,78.61328125
6,1734037439392.4375,58.10546875,43.9453125,-58.10546875,150.390625
7,1734037439396.3438,62.5,25.87890625,-57.6171875,113.28125
8,1734037439400.25,50.29296875,17.08984375,-33.69140625,3.90625
9,1734037439404.1562,13.18359375,72.75390625,-35.15625,-22.4609375
10,1734037439408.0625,26.85546875,93.26171875,-53.22265625,90.33203125
11,1734037439411.9688,43.9453125,58.10546875,-49.8046875,112.79296875
0,1734037439415.875,102.5390625,-34.1796875,-7.32421875,88.37890625
1,1734037439419.7812,61.03515625,-7.8125,7.32421875,27.83203125
2,1734037439423.6875,-59.5703125,94.7265625,-52.24609375,5.37109375
3,1734037439427.5938,0,42.48046875,-63.96484375,95.21484375
4,1734037439431.5,24.90234375,-6.34765625,-44.43359375,31.25
5,1734037439435.4062,-24.4140625,0.48828125,-37.59765625,-64.94140625
6,1734037439439.3125,-32.2265625,41.9921875,-47.36328125,11.71875
7,1734037439443.2188,18.06640625,31.25,-53.7109375,126.46484375
8,1734037439447.125,47.36328125,2.44140625,-26.85546875,104.00390625
9,1734037439451.0312,-60.05859375,45.8984375,-39.0625,-99.12109375
10,1734037439454.9375,-104.00390625,72.265625,-64.94140625,-104.98046875
11,1734037439458.8438,-6.8359375,23.4375,-36.1328125,103.515625
0,1734037439462.75,3.41796875,14.6484375,-15.625,88.8671875
1,1734037439466.6562,-92.28515625,43.9453125,-36.62109375,-111.81640625
2,1734037439470.5625,-76.171875,23.4375,-32.71484375,-77.1484375
3,1734037439474.4688,-17.578125,34.66796875,-27.83203125,74.70703125
4,1734037439478.375,-15.625,44.921875,-39.55078125,70.80078125
5,1734037439482.2812,-37.59765625,22.94921875,-27.34375,-31.73828125
6,1734037439486.1875,-78.125,44.921875,-19.53125,-97.16796875
7,1734037439490.0938,-5.37109375,19.04296875,-13.18359375,67.3828125
8,1734037439494,24.90234375,26.3671875,-11.23046875,132.32421875
9,1734037439497.9062,-105.46875,98.14453125,-56.640625,-91.796875
10,1734037439501.8125,-104.00390625,47.36328125,-54.19921875,-158.69140625
11,1734037439505.7188,-44.43359375,36.1328125,-34.1796875,-27.34375
0,1734037439509.625,-34.66796875,61.5234375,-43.9453125,40.52734375
1,1734037439513.5312,-55.17578125,46.38671875,-44.921875,-25.390625
2,1734037439517.4375,-55.6640625,5.859375,-31.25,-102.05078125
3,1734037439521.3438,-43.45703125,14.6484375,-22.4609375,-37.109375
4,1734037439525.25,-53.22265625,60.546875,-41.50390625,45.41015625
5,1734037439529.1562,-31.25,40.52734375,-40.52734375,49.8046875
6,1734037439533.0625,-26.85546875,-3.41796875,-28.80859375,-31.73828125
7,1734037439536.9688,-46.38671875,5.859375,-24.4140625,-42.48046875
8,1734037439540.875,-84.9609375,61.5234375,-55.6640625,-2.9296875
9,1734037439544.7812,-68.359375,33.203125,-71.2890625,11.71875
10,1734037439548.6875,-59.08203125,-19.04296875,-36.62109375,-41.50390625
11,1734037439552.5938,-99.609375,4.8828125,-26.3671875,-124.51171875
0,1734037439556.5,-87.40234375,55.6640625,-50.78125,-48.828125
1,1734037439560.4062,-29.296875,32.71484375,-43.9453125,56.640625
2,1734037439564.3125,-7.8125,-24.4140625,-15.625,39.0625
3,1734037439568.2188,-82.03125,8.7890625,-22.94921875,-106.4453125
4,1734037439572.125,-106.4453125,45.8984375,-56.640625,-89.84375
5,1734037439576.0312,-34.1796875,23.4375,-53.7109375,44.921875
6,1734037439579.9375,20.5078125,-11.71875,-24.4140625,66.89453125
7,1734037439583.8438,-41.50390625,-7.8125,-26.3671875,-62.5
8,1734037439587.75,-145.5078125,68.84765625,-62.01171875,-146.97265625
9,1734037439591.6562,-77.1484375,62.98828125,-68.84765625,-17.08984375
10,1734037439595.5625,7.8125,2.9296875,-33.203125,61.03515625
11,1734037439599.4688,-86.9140625,19.53125,-37.109375,-106.93359375
0,1734037439603.375,-138.671875,53.22265625,-66.89453125,-185.546875
1,1734037439607.2812,-25.87890625,52.734375,-49.31640625,7.32421875
2,1734037439611.1875,-5.37109375,36.1328125,-38.0859375,65.91796875
3,1734037439615.0938,-75.68359375,7.8125,-41.50390625,-61.03515625
4,1734037439619,-88.8671875,-1.46484375,-30.2734375,-123.53515625
5,1734037439622.9062,-21.97265625,14.6484375,-29.78515625,0.48828125
6,1734037439626.8125,92.7734375,-12.6953125,-10.7421875,154.78515625
7,1734037439630.7188,5.859375,32.2265625,-30.2734375,11.71875
8,1734037439634.625,-121.58203125,54.6875,-58.10546875,-173.828125
9,1734037439638.5312,-25.87890625,16.6015625,-35.15625,-36.1328125
10,1734037439642.4375,13.671875,35.15625,-33.69140625,63.96484375
11,1734037439646.3438,-35.64453125,54.6875,-36.62109375,-15.13671875
0,1734037439650.25,-55.6640625,20.99609375,-25.390625,-106.4453125
1,1734037439654.1562,-28.80859375,16.6015625,-13.18359375,-53.7109375
2,1734037439658.0625,4.8828125,54.19921875,-24.90234375,57.12890625
3,1734037439661.9688,-6.8359375,51.7578125,-37.109375,47.36328125
4,1734037439665.875,-28.80859375,3.41796875,-32.71484375,-50.29296875
5,1734037439669.7812,3.90625,-25.390625,-18.06640625,-32.2265625
6,1734037439673.6875,25.87890625,22.4609375,-32.2265625,39.55078125
7,1734037439677.5938,14.16015625,49.8046875,-62.5,40.52734375
8,1734037439681.5,-17.578125,37.59765625,-65.91796875,-37.59765625
9,1734037439685.4062,-6.8359375,-11.23046875,-38.57421875,-56.640625
10,1734037439689.3125,6.8359375,22.94921875,-33.69140625,28.3203125
11,1734037439693.2188,-52.24609375,97.65625,-83.0078125,-2.44140625
0,1734037439697.125,-20.99609375,35.15625,-69.3359375,-19.53125
1,1734037439701.0312,-43.45703125,4.8828125,-25.390625,-95.21484375
2,1734037439704.9375,-51.7578125,44.43359375,-27.83203125,-79.1015625
3,1734037439708.8438,6.34765625,66.40625,-45.41015625,34.1796875
4,1734037439712.75,31.73828125,28.3203125,-40.0390625,51.26953125
5,1734037439716.6562,-2.9296875,-15.625,-18.06640625,-32.71484375
6,1734037439720.5625,-51.26953125,19.04296875,-28.3203125,-78.61328125
7,1734037439724.4688,-35.64453125,47.36328125,-58.59375,-8.30078125
8,1734037439728.375,34.66796875,-3.41796875,-50.78125,77.1484375
9,1734037439732.2812,48.828125,-32.71484375,-9.765625,40.52734375
10,1734037439736.1875,-68.84765625,41.9921875,-40.0390625,-124.0234375
11,1734037439740.0938,-38.0859375,56.15234375,-82.51953125,-53.7109375
0,1734037439744,45.8984375,24.4140625,-59.08203125,66.89453125
1,1734037439747.9062,-0.48828125,11.23046875,-44.43359375,-29.296875
2,1734037439751.8125,-70.80078125,17.578125,-57.6171875,-155.2734375
3,1734037439755.7188,-22.94921875,34.66796875,-56.15234375,-51.7578125
4,1734037439759.625,43.9453125,24.90234375,-39.55078125,81.54296875
5,1734037439763.5312,31.73828125,10.7421875,-28.3203125,41.50390625
6,1734037439767.4375,-33.203125,14.16015625,-26.85546875,-77.1484375
7,1734037439771.3438,-20.01953125,32.2265625,-37.109375,-60.05859375
8,1734037439775.25,105.95703125,-0.48828125,-28.80859375,109.86328125
9,1734037439779.1562,84.47265625,14.6484375,-24.4140625,94.23828125
10,1734037439783.0625,-89.84375,65.4296875,-64.94140625,-157.71484375
11,1734037439786.9688,-60.546875,8.30078125,-57.6171875,-127.44140625
0,1734037439790.875,20.99609375,20.99609375,-43.9453125,48.33984375
1,1734037439794.7812,10.25390625,60.546875,-65.4296875,36.1328125
2,1734037439798.6875,-29.78515625,28.3203125,-66.89453125,-75.68359375
3,1734037439802.5938,-32.2265625,4.39453125,-50.29296875,-92.7734375
4,1734037439806.5,21.97265625,13.671875,-54.19921875,20.5078125
5,1734037439810.4062,37.109375,2.44140625,-59.5703125,86.42578125
6,1734037439814.3125,-6.8359375,-8.30078125,-52.734375,13.18359375
7,1734037439818.2188,-39.55078125,-29.78515625,-44.43359375,-81.54296875
8,1734037439822.125,-5.859375,-17.578125,-41.50390625,-0.9765625
9,1734037439826.0312,-42.48046875,48.828125,-78.61328125,16.11328125
10,1734037439829.9375,-45.8984375,20.5078125,-87.40234375,-36.1328125
11,1734037439833.8438,-23.4375,-21.97265625,-53.22265625,-87.890625
0,1734037439837.75,-19.04296875,13.18359375,-52.24609375,-65.4296875
1,1734037439841.6562,17.578125,44.43359375,-71.2890625,34.1796875
2,1734037439845.5625,40.0390625,3.41796875,-65.4296875,54.6875
3,1734037439849.4688,4.8828125,-49.31640625,-46.38671875,-21.484375
4,1734037439853.375,-44.921875,-23.92578125,-46.875,-72.75390625
5,1734037439857.2812,-5.37109375,5.37109375,-68.359375,8.30078125
6,1734037439861.1875,18.06640625,12.20703125,-75.1953125,53.22265625
7,1734037439865.0938,23.4375,-36.1328125,-46.38671875,22.4609375
8,1734037439869,-10.7421875,-18.5546875,-24.90234375,-46.875
9,1734037439872.9062,-78.125,96.6796875,-74.21875,-76.171875
10,1734037439876.8125,20.01953125,55.6640625,-82.51953125,46.875
11,1734037439880.7188,41.015625,20.01953125,-55.17578125,26.3671875
0,1734037439884.625,-39.55078125,35.15625,-55.17578125,-103.02734375
1,1734037439888.5312,-20.99609375,52.24609375,-61.5234375,-37.59765625
2,1734037439892.4375,56.640625,41.50390625,-56.640625,91.796875
3,1734037439896.3438,47.36328125,5.37109375,-54.6875,67.3828125
4,1734037439900.25,-18.06640625,-13.671875,-49.31640625,-63.4765625
5,1734037439904.1562,-9.765625,17.578125,-38.57421875,-50.29296875
6,1734037439908.0625,49.31640625,39.0625,-47.8515625,76.171875
7,1734037439911.9688,116.69921875,-6.8359375,-27.34375,153.80859375
8,1734037439915.875,-5.859375,34.66796875,-39.0625,-20.5078125
9,1734037439919.7812,-102.05078125,69.82421875,-72.75390625,-137.6953125
10,1734037439923.6875,14.6484375,38.0859375,-50.78125,39.55078125
11,1734037439927.5938,47.36328125,44.43359375,-40.52734375,91.30859375
0,1734037439931.5,-12.20703125,47.8515625,-44.43359375,-20.5078125
1,1734037439935.4062,-50.29296875,16.11328125,-36.1328125,-87.40234375
2,1734037439939.3125,9.765625,9.765625,-25.390625,21.97265625
3,1734037439943.2188,49.8046875,31.25,-32.2265625,91.796875
4,1734037439947.125,8.7890625,5.37109375,-47.36328125,18.06640625
5,1734037439951.0312,-25.87890625,-31.25,-40.52734375,-70.3125
6,1734037439954.9375,35.64453125,-36.1328125,-19.04296875,36.62109375
7,1734037439958.8438,58.10546875,-4.8828125,-31.73828125,128.41796875
8,1734037439962.75,-21.484375,16.11328125,-67.87109375,29.296875
9,1734037439966.6562,-75.1953125,-7.8125,-59.08203125,-85.44921875
10,1734037439970.5625,0.48828125,-37.59765625,-18.5546875,-15.625
11,1734037439974.4688,41.50390625,9.27734375,-31.73828125,88.37890625
0,1734037439978.375,-40.0390625,60.05859375,-84.47265625,1.46484375
1,1734037439982.2812,-33.69140625,-6.34765625,-65.91796875,-53.22265625
2,1734037439986.1875,-39.0625,-12.20703125,-47.36328125,-74.21875
3,1734037439990.0938,-15.625,29.296875,-63.96484375,6.34765625
4,1734037439994,12.6953125,13.671875,-74.70703125,73.2421875
5,1734037439997.9062,19.04296875,-41.015625,-54.6875,52.24609375
6,1734037440001.8125,-9.27734375,-41.015625,-21.97265625,-15.13671875
7,1734037440005.7188,-57.6171875,40.0390625,-59.5703125,-32.2265625
8,1734037440009.625,-8.30078125,46.875,-87.890625,36.62109375
9,1734037440013.5312,60.546875,-13.671875,-45.41015625,80.078125
10,1734037440017.4375,-16.11328125,-11.23046875,-34.1796875,-38.0859375
11,1734037440021.3438,-80.078125,53.22265625,-62.5,-80.078125
0,1734037440025.25,2.44140625,51.26953125,-64.94140625,70.80078125
1,1734037440029.1562,72.75390625,-6.34765625,-43.45703125,135.25390625
2,1734037440033.0625,9.765625,-15.625,-32.71484375,10.25390625
3,1734037440036.9688,-68.84765625,13.671875,-54.19921875,-79.58984375
4,1734037440040.875,10.25390625,21.484375,-60.05859375,47.36328125
5,1734037440044.7812,94.7265625,-2.44140625,-29.296875,146.97265625
6,1734037440048.6875,26.85546875,-6.8359375,-29.78515625,19.04296875
7,1734037440052.5938,-38.57421875,0.9765625,-47.8515625,-86.42578125
8,1734037440056.5,-10.7421875,19.04296875,-60.05859375,13.18359375
9,1734037440060.4062,65.91796875,-13.671875,-50.29296875,145.99609375
10,1734037440064.3125,16.11328125,-14.6484375,-49.31640625,44.43359375
11,1734037440068.2188,-94.23828125,15.625,-73.73046875,-136.23046875
0,1734037440072.125,-4.39453125,-1.953125,-63.96484375,-15.13671875
1,1734037440076.0312,49.31640625,20.5078125,-59.08203125,90.33203125
2,1734037440079.9375,-15.625,40.0390625,-63.96484375,19.53125
3,1734037440083.8438,-94.23828125,3.41796875,-69.3359375,-115.72265625
4,1734037440087.75,-67.3828125,-18.5546875,-59.08203125,-69.82421875
5,1734037440091.6562,31.73828125,1.953125,-60.05859375,84.47265625
6,1734037440095.5625,28.3203125,20.01953125,-69.3359375,78.125
7,1734037440099.4688,-69.3359375,22.94921875,-83.49609375,-74.70703125
8,1734037440103.375,-20.5078125,-25.390625,-73.73046875,-50.29296875
9,1734037440107.2812,70.3125,-18.06640625,-54.19921875,108.88671875
10,1734037440111.1875,7.8125,45.8984375,-88.37890625,53.22265625
11,1734037440115.0938,-36.1328125,10.7421875,-91.30859375,-43.9453125
0,1734037440119,-53.22265625,-21.97265625,-60.546875,-78.61328125
1,1734037440122.9062,-23.92578125,-3.41796875,-67.3828125,12.6953125
2,1734037440126.8125,-4.39453125,2.9296875,-82.51953125,85.44921875
3,1734037440130.7188,-44.43359375,6.34765625,-91.796875,0
4,1734037440134.625,-46.38671875,-23.92578125,-76.66015625,-67.87109375
5,1734037440138.5312,-22.94921875,-7.32421875,-67.3828125,3.41796875
6,1734037440142.4375,-6.8359375,27.34375,-90.33203125,74.21875
7,1734037440146.3438,-8.7890625,15.625,-87.890625,37.109375
8,1734037440150.25,-8.7890625,-43.45703125,-58.10546875,-26.85546875
9,1734037440154.1562,-15.13671875,-37.109375,-49.8046875,-16.6015625
10,1734037440158.0625,-73.73046875,64.453125,-118.1640625,-33.69140625
11,1734037440161.9688,-31.73828125,38.0859375,-133.7890625,2.44140625
0,1734037440165.875,-31.25,0,-93.75,-59.5703125
1,1734037440169.7812,-69.82421875,18.06640625,-90.8203125,-130.859375
2,1734037440173.6875,-10.7421875,20.5078125,-102.05078125,-8.30078125
3,1734037440177.5938,40.0390625,-8.30078125,-89.84375,78.125
4,1734037440181.5,9.765625,-53.22265625,-71.77734375,7.32421875
5,1734037440185.4062,-58.59375,-44.43359375,-67.3828125,-88.8671875
6,1734037440189.3125,-28.80859375,11.23046875,-75.68359375,-5.37109375
7,1734037440193.2188,43.9453125,15.13671875,-84.9609375,91.30859375
8,1734037440197.125,82.03125,-29.296875,-54.19921875,91.30859375
9,1734037440201.0312,-37.109375,20.99609375,-67.3828125,-100.09765625
10,1734037440204.9375,-71.77734375,41.9921875,-104.00390625,-125.48828125
11,1734037440208.8438,35.15625,-0.9765625,-92.28515625,56.15234375
0,1734037440212.75,23.4375,-0.9765625,-92.28515625,37.109375
1,1734037440216.6562,-54.19921875,-8.7890625,-86.9140625,-104.00390625
2,1734037440220.5625,-64.453125,-15.625,-86.42578125,-107.421875
3,1734037440224.4688,15.625,-19.04296875,-83.0078125,48.33984375
4,1734037440228.375,32.71484375,-15.625,-84.47265625,76.66015625
5,1734037440232.2812,-24.90234375,-20.5078125,-90.8203125,-34.1796875
6,1734037440236.1875,-64.453125,-2.9296875,-89.84375,-98.6328125
7,1734037440240.0938,20.99609375,-18.06640625,-82.03125,51.7578125
8,1734037440244,70.80078125,-31.25,-61.5234375,152.83203125
9,1734037440247.9062,-90.33203125,42.96875,-91.796875,-70.3125
10,1734037440251.8125,-127.9296875,16.11328125,-101.07421875,-167.48046875
11,1734037440255.7188,-43.9453125,10.25390625,-82.03125,-29.296875
0,1734037440259.625,-18.06640625,34.66796875,-90.8203125,34.66796875
1,1734037440263.5312,-29.296875,9.27734375,-97.16796875,-6.8359375
2,1734037440267.4375,-45.41015625,-16.6015625,-76.66015625,-79.1015625
3,1734037440271.3438,-41.015625,0,-61.03515625,-49.8046875
4,1734037440275.25,0.9765625,18.5546875,-70.80078125,51.7578125
5,1734037440279.1562,37.59765625,-8.7890625,-62.98828125,76.171875
6,1734037440283.0625,11.23046875,-45.8984375,-50.78125,-14.6484375
7,1734037440286.9688,-0.9765625,-24.4140625,-46.875,-37.109375
8,1734037440290.875,-18.06640625,56.15234375,-84.9609375,4.39453125
9,1734037440294.7812,5.37109375,37.109375,-100.09765625,35.64453125
10,1734037440298.6875,35.15625,-38.57421875,-65.91796875,13.671875
11,1734037440302.5938,-15.625,-39.55078125,-56.15234375,-61.03515625
0,1734037440306.5,-37.109375,7.32421875,-91.30859375,-36.62109375
1,1734037440310.4062,16.11328125,-13.18359375,-94.7265625,54.19921875
2,1734037440314.3125,19.04296875,-46.875,-71.77734375,28.3203125
3,1734037440318.2188,-44.921875,-45.41015625,-76.66015625,-99.609375
4,1734037440322.125,-30.2734375,-23.4375,-83.49609375,-48.33984375
5,1734037440326.0312,41.015625,-21.484375,-81.0546875,95.703125
6,1734037440329.9375,87.890625,-69.3359375,-66.89453125,125.48828125
7,1734037440333.8438,12.6953125,-78.61328125,-65.91796875,-19.53125
8,1734037440337.75,-68.359375,7.32421875,-101.07421875,-110.83984375
9,1734037440341.6562,15.13671875,29.78515625,-105.46875,26.85546875
10,1734037440345.5625,38.0859375,7.32421875,-85.44921875,56.15234375
11,1734037440349.4688,-11.71875,-13.671875,-81.0546875,-62.5
0,1734037440353.375,-32.2265625,2.9296875,-78.61328125,-97.65625
1,1734037440357.2812,1.953125,18.5546875,-87.40234375,22.94921875
2,1734037440361.1875,91.30859375,-16.6015625,-65.91796875,155.76171875
3,1734037440365.0938,22.94921875,34.1796875,-62.5,10.25390625
4,1734037440369,-54.19921875,59.5703125,-92.28515625,-140.625
5,1734037440372.9062,33.203125,14.16015625,-84.47265625,23.4375
6,1734037440376.8125,88.37890625,12.6953125,-65.91796875,155.2734375
7,1734037440380.7188,13.671875,52.24609375,-83.0078125,17.08984375
8,1734037440384.625,-46.38671875,21.484375,-90.8203125,-114.74609375
9,1734037440388.5312,13.671875,-9.765625,-70.3125,-1.953125
10,1734037440392.4375,47.8515625,3.41796875,-79.58984375,101.5625
11,1734037440396.3438,9.765625,14.16015625,-95.703125,38.57421875
0,1734037440400.25,-34.1796875,-13.18359375,-94.7265625,-87.40234375
1,1734037440404.1562,-12.20703125,-42.96875,-86.42578125,-60.05859375
2,1734037440408.0625,49.31640625,-27.83203125,-85.9375,72.265625
3,1734037440411.9688,16.6015625,-1.953125,-107.91015625,45.8984375
4,1734037440415.875,-28.80859375,-23.92578125,-104.4921875,-61.5234375
5,1734037440419.7812,41.50390625,-79.58984375,-63.4765625,-9.27734375
6,1734037440423.6875,72.75390625,-44.921875,-69.82421875,103.02734375
7,1734037440427.5938,1.953125,10.7421875,-116.69921875,64.94140625
8,1734037440431.5,-23.92578125,-32.71484375,-114.2578125,-27.34375
9,1734037440435.4062,1.953125,-82.03125,-78.125,-47.8515625
10,1734037440439.3125,3.41796875,-40.52734375,-85.9375,17.08984375
11,1734037440443.2188,-32.2265625,15.13671875,-120.1171875,18.06640625
0,1734037440447.125,-3.41796875,-26.85546875,-104.4921875,4.8828125
1,1734037440451.0312,-24.4140625,-40.0390625,-92.28515625,-89.84375
2,1734037440454.9375,-29.296875,-2.44140625,-96.19140625,-63.96484375
3,1734037440458.8438,10.7421875,11.23046875,-103.515625,54.6875
4,1734037440462.75,30.2734375,-26.85546875,-98.14453125,68.84765625
5,1734037440466.6562,-2.9296875,-52.24609375,-83.984375,-23.92578125
6,1734037440470.5625,-32.2265625,-15.13671875,-89.35546875,-64.94140625
7,1734037440474.4688,-19.53125,30.2734375,-106.93359375,21.97265625
8,1734037440478.375,15.625,-15.625,-104.00390625,68.84765625
9,1734037440482.2812,23.92578125,-55.17578125,-66.40625,11.23046875
10,1734037440486.1875,-85.9375,26.3671875,-87.40234375,-130.859375
11,1734037440490.0938,-55.6640625,48.828125,-113.76953125,-34.1796875
0,1734037440494,35.15625,25.390625,-84.47265625,106.4453125
1,1734037440497.9062,-6.8359375,14.16015625,-71.77734375,16.6015625
2,1734037440501.8125,-79.58984375,18.5546875,-73.73046875,-119.62890625
3,1734037440505.7188,-34.66796875,34.66796875,-70.80078125,-28.3203125
4,1734037440509.625,52.24609375,28.80859375,-64.94140625,110.83984375
5,1734037440513.5312,38.57421875,20.01953125,-56.640625,69.3359375
6,1734037440517.4375,-37.59765625,25.87890625,-54.19921875,-73.2421875
7,1734037440521.3438,-39.55078125,44.921875,-72.265625,-62.5
8,1734037440525.25,58.59375,18.06640625,-69.82421875,119.62890625
9,1734037440529.1562,93.26171875,-8.7890625,-42.48046875,150.390625
10,1734037440533.0625,-82.03125,49.31640625,-79.58984375,-113.76953125
11,1734037440536.9688,-119.62890625,62.01171875,-98.14453125,-167.48046875
0,1734037440540.875,11.23046875,53.22265625,-81.0546875,14.16015625
1,1734037440544.7812,23.92578125,61.03515625,-83.0078125,43.45703125
2,1734037440548.6875,-38.57421875,43.9453125,-69.82421875,-50.29296875
3,1734037440552.5938,-60.546875,30.76171875,-54.6875,-97.16796875
4,1734037440556.5,6.34765625,45.8984375,-54.6875,20.01953125
5,1734037440560.4062,45.41015625,48.828125,-64.453125,81.0546875
6,1734037440564.3125,-14.6484375,34.66796875,-62.5,-4.8828125
7,1734037440568.2188,-50.29296875,0,-53.22265625,-81.54296875
8,1734037440572.125,-0.48828125,-0.9765625,-47.8515625,-3.90625
9,1734037440576.0312,4.8828125,38.57421875,-66.89453125,49.8046875
10,1734037440579.9375,-15.625,28.3203125,-80.56640625,0.48828125
11,1734037440583.8438,-21.484375,-20.01953125,-68.359375,-59.5703125
0,1734037440587.75,-9.27734375,-13.671875,-56.640625,-32.2265625
1,1734037440591.6562,-4.39453125,38.57421875,-82.51953125,18.5546875
2,1734037440595.5625,21.484375,12.20703125,-98.14453125,44.921875
3,1734037440599.4688,-14.16015625,-21.97265625,-83.0078125,-38.57421875
4,1734037440603.375,-41.9921875,-8.30078125,-75.1953125,-89.84375
5,1734037440607.2812,24.4140625,7.32421875,-76.66015625,41.9921875
6,1734037440611.1875,46.875,12.20703125,-78.125,99.12109375
7,1734037440615.0938,47.8515625,-31.25,-51.26953125,55.6640625
8,1734037440619,4.39453125,-12.20703125,-40.0390625,-28.3203125
9,1734037440622.9062,-62.98828125,86.42578125,-90.33203125,-70.3125
10,1734037440626.8125,-10.7421875,57.6171875,-88.8671875,29.78515625
11,1734037440630.7188,-4.8828125,8.30078125,-61.03515625,18.06640625
0,1734037440634.625,-66.40625,-8.7890625,-49.31640625,-104.00390625
1,1734037440638.5312,-65.91796875,10.7421875,-61.03515625,-79.1015625
2,1734037440642.4375,7.32421875,9.765625,-73.73046875,52.734375
3,1734037440646.3438,24.4140625,-8.7890625,-62.5,60.546875
4,1734037440650.25,-50.78125,-9.27734375,-68.84765625,-96.6796875
5,1734037440654.1562,-57.12890625,-6.8359375,-76.171875,-101.07421875
6,1734037440658.0625,11.23046875,-15.13671875,-73.2421875,59.5703125
7,1734037440661.9688,25.87890625,-16.6015625,-68.359375,86.9140625
8,1734037440665.875,-70.80078125,4.8828125,-89.35546875,-93.75
9,1734037440669.7812,-79.1015625,0.9765625,-101.5625,-154.78515625
10,1734037440673.6875,24.90234375,0.9765625,-85.9375,22.94921875
11,1734037440677.5938,38.0859375,1.953125,-84.9609375,75.68359375
0,1734037440681.5,-18.06640625,0.9765625,-88.37890625,-45.8984375
1,1734037440685.4062,-44.43359375,-16.6015625,-80.078125,-130.37109375
2,1734037440689.3125,17.578125,-33.203125,-67.3828125,2.9296875
3,1734037440693.2188,35.64453125,-3.41796875,-76.66015625,82.03125
4,1734037440697.125,9.27734375,6.8359375,-89.35546875,0.48828125
5,1734037440701.0312,-9.27734375,-18.06640625,-75.1953125,-91.30859375
6,1734037440704.9375,34.1796875,-35.15625,-51.7578125,2.44140625
7,1734037440708.8438,63.4765625,-10.25390625,-56.15234375,109.375
8,1734037440712.75,-27.34375,45.41015625,-96.6796875,-19.53125
9,1734037440716.6562,-46.38671875,4.39453125,-89.84375,-128.90625
10,1734037440720.5625,14.6484375,-23.92578125,-49.31640625,-57.12890625
11,1734037440724.4688,11.71875,28.80859375,-62.01171875,34.66796875
0,1734037440728.375,-20.5078125,44.43359375,-92.7734375,13.18359375
1,1734037440732.2812,8.7890625,4.8828125,-68.84765625,-40.0390625
2,1734037440736.1875,-11.71875,-1.46484375,-55.6640625,-93.75
3,1734037440740.0938,-11.71875,35.64453125,-71.77734375,-11.71875
4,1734037440744,28.3203125,43.9453125,-78.125,57.6171875
5,1734037440747.9062,53.22265625,-4.8828125,-65.4296875,14.6484375
6,1734037440751.8125,47.36328125,-28.80859375,-47.36328125,-53.22265625
7,1734037440755.7188,-4.8828125,45.41015625,-76.171875,-44.921875
8,1734037440759.625,-7.8125,65.91796875,-109.375,10.25390625
9,1734037440763.5312,54.19921875,-15.625,-80.56640625,41.015625
10,1734037440767.4375,23.92578125,-33.69140625,-59.08203125,-57.6171875
11,1734037440771.3438,-49.31640625,27.83203125,-80.56640625,-104.00390625
0,1734037440775.25,13.18359375,28.3203125,-86.42578125,29.296875
1,1734037440779.1562,75.1953125,10.7421875,-68.359375,64.453125
2,1734037440783.0625,52.24609375,14.16015625,-66.40625,-73.2421875
3,1734037440786.9688,11.23046875,25.390625,-91.30859375,-152.83203125
4,1734037440790.875,48.33984375,18.06640625,-97.16796875,-23.4375
5,1734037440794.7812,119.140625,-22.94921875,-71.2890625,86.42578125
6,1734037440798.6875,83.49609375,-8.30078125,-64.94140625,-36.62109375
7,1734037440802.5938,29.296875,17.578125,-80.56640625,-163.57421875
8,1734037440806.5,51.26953125,27.83203125,-86.9140625,-62.01171875
9,1734037440810.4062,132.32421875,-0.9765625,-64.453125,80.56640625
10,1734037440814.3125,106.93359375,7.8125,-49.31640625,20.5078125
11,1734037440818.2188,-29.78515625,61.5234375,-94.23828125,-210.9375
0,1734037440822.125,15.13671875,29.296875,-97.16796875,-108.88671875
1,1734037440826.0312,76.171875,36.1328125,-83.984375,48.33984375
2,1734037440829.9375,64.453125,47.36328125,-89.84375,-18.5546875
3,1734037440833.8438,37.109375,11.23046875,-86.9140625,-144.04296875
4,1734037440837.75,42.96875,-10.25390625,-83.984375,-95.703125
5,1734037440841.6562,90.33203125,-1.46484375,-84.47265625,61.5234375
6,1734037440845.5625,65.91796875,22.4609375,-89.35546875,31.25
7,1734037440849.4688,-10.7421875,14.6484375,-100.09765625,-132.8125
8,1734037440853.375,2.44140625,-37.59765625,-99.12109375,-119.62890625
9,1734037440857.2812,54.6875,-44.43359375,-86.42578125,55.17578125
10,1734037440861.1875,16.11328125,3.90625,-92.28515625,52.734375
11,1734037440865.0938,-25.390625,2.44140625,-101.5625,-70.3125
0,1734037440869,2.9296875,-47.36328125,-86.42578125,-93.26171875
1,1734037440872.9062,22.94921875,-31.73828125,-83.0078125,20.5078125
2,1734037440876.8125,-19.53125,7.8125,-113.28125,47.8515625
3,1734037440880.7188,-20.99609375,-22.4609375,-109.86328125,-15.625
4,1734037440884.625,-25.87890625,-43.45703125,-84.9609375,-97.16796875
5,1734037440888.5312,-34.66796875,-19.53125,-79.58984375,-42.96875
6,1734037440892.4375,-35.64453125,-8.7890625,-98.6328125,41.50390625
7,1734037440896.3438,-48.33984375,-25.390625,-103.02734375,2.9296875
8,1734037440900.25,-32.2265625,-78.61328125,-75.1953125,-60.546875
9,1734037440904.1562,-69.82421875,-47.36328125,-83.49609375,-77.1484375
10,1734037440908.0625,-116.69921875,32.2265625,-128.41796875,-31.25
11,1734037440911.9688,-66.89453125,7.8125,-116.69921875,26.85546875
0,1734037440915.875,3.41796875,-51.26953125,-68.84765625,14.16015625
1,1734037440919.7812,-63.96484375,-1.953125,-76.66015625,-78.125
2,1734037440923.6875,-152.34375,81.0546875,-125,-84.9609375
3,1734037440927.5938,-62.01171875,50.78125,-98.6328125,42.96875
4,1734037440931.5,-30.76171875,25.87890625,-74.21875,-7.8125
5,1734037440935.4062,-60.05859375,17.08984375,-74.70703125,-110.3515625
6,1734037440939.3125,-63.4765625,38.0859375,-76.171875,-14.6484375
7,1734037440943.2188,-22.94921875,12.20703125,-81.0546875,96.6796875
8,1734037440947.125,-10.7421875,-12.6953125,-67.3828125,60.05859375
9,1734037440951.0312,-105.95703125,22.4609375,-77.1484375,-136.71875
10,1734037440954.9375,-110.83984375,21.484375,-88.8671875,-105.95703125
11,1734037440958.8438,-29.78515625,5.859375,-74.70703125,87.40234375
0,1734037440962.75,-26.85546875,8.30078125,-71.2890625,68.359375
1,1734037440966.6562,-62.98828125,17.08984375,-77.1484375,-88.8671875
2,1734037440970.5625,-50.78125,12.20703125,-66.40625,-77.63671875
3,1734037440974.4688,-18.06640625,15.13671875,-62.98828125,83.49609375
4,1734037440978.375,-30.76171875,32.2265625,-81.0546875,78.61328125
5,1734037440982.2812,-48.828125,14.6484375,-78.61328125,-38.57421875
6,1734037440986.1875,-67.87109375,17.578125,-66.89453125,-89.84375
7,1734037440990.0938,-8.7890625,-3.90625,-65.4296875,70.3125
8,1734037440994,23.4375,-13.18359375,-48.33984375,167.48046875
9,1734037440997.9062,-104.98046875,56.15234375,-82.51953125,-51.7578125
10,1734037441001.8125,-139.16015625,28.80859375,-99.609375,-179.6875
11,1734037441005.7188,-90.8203125,20.01953125,-82.03125,-49.8046875
0,1734037441009.625,-62.01171875,60.05859375,-96.19140625,47.36328125
1,1734037441013.5312,-62.01171875,58.59375,-102.05078125,0
2,1734037441017.4375,-68.84765625,18.06640625,-78.61328125,-96.6796875
3,1734037441021.3438,-62.01171875,13.18359375,-70.3125,-56.15234375
4,1734037441025.25,-55.17578125,43.9453125,-78.125,68.359375
5,1734037441029.1562,-35.15625,27.34375,-68.359375,74.70703125
6,1734037441033.0625,-48.33984375,-0.48828125,-62.01171875,-53.7109375
7,1734037441036.9688,-20.5078125,-24.90234375,-44.921875,-24.90234375
8,1734037441040.875,-67.3828125,41.9921875,-69.3359375,41.015625
9,1734037441044.7812,-105.46875,65.4296875,-104.98046875,7.32421875
10,1734037441048.6875,-42.96875,-1.46484375,-77.63671875,-32.2265625
11,1734037441052.5938,-67.3828125,-5.37109375,-63.96484375,-104.4921875
0,1734037441056.5,-89.35546875,44.43359375,-76.66015625,-12.20703125
1,1734037441060.4062,-54.19921875,50.78125,-75.68359375,93.75
2,1734037441064.3125,-34.1796875,20.01953125,-61.5234375,41.015625
3,1734037441068.2188,-59.08203125,1.953125,-65.91796875,-87.890625
4,1734037441072.125,-62.5,-1.953125,-82.03125,-27.83203125
5,1734037441076.0312,-22.94921875,-2.44140625,-87.40234375,105.46875
6,1734037441079.9375,29.78515625,-36.62109375,-71.2890625,106.93359375
7,1734037441083.8438,1.953125,-33.69140625,-65.4296875,-33.203125
8,1734037441087.75,-71.2890625,24.4140625,-95.703125,-87.890625
9,1734037441091.6562,-54.19921875,40.52734375,-108.88671875,41.50390625
10,1734037441095.5625,20.99609375,-15.13671875,-80.56640625,121.09375
11,1734037441099.4688,-17.578125,-17.578125,-74.21875,-24.90234375
0,1734037441103.375,-97.65625,31.25,-106.93359375,-143.5546875
1,1734037441107.2812,-17.578125,17.08984375,-98.6328125,29.78515625
2,1734037441111.1875,41.9921875,16.11328125,-87.890625,106.4453125
3,1734037441115.0938,1.953125,1.46484375,-98.6328125,-15.13671875
4,1734037441119,-27.83203125,-18.5546875,-99.12109375,-107.91015625
5,1734037441122.9062,34.66796875,-30.2734375,-88.37890625,33.203125
6,1734037441126.8125,80.56640625,-34.1796875,-77.63671875,169.43359375
7,1734037441130.7188,8.7890625,13.18359375,-96.19140625,19.04296875
8,1734037441134.625,-31.25,3.90625,-106.93359375,-143.06640625
9,1734037441138.5312,25.390625,-31.73828125,-90.8203125,-21.484375
10,1734037441142.4375,64.453125,-16.6015625,-96.19140625,115.234375
11,1734037441146.3438,43.9453125,-3.41796875,-105.46875,58.10546875
0,1734037441150.25,8.7890625,-28.3203125,-91.30859375,-72.75390625
1,1734037441154.1562,47.36328125,-51.26953125,-71.2890625,-5.859375
2,1734037441158.0625,69.82421875,-21.97265625,-79.1015625,129.8828125
3,1734037441161.9688,22.94921875,11.23046875,-107.91015625,67.3828125
4,1734037441165.875,41.015625,-21.97265625,-92.28515625,-20.01953125
5,1734037441169.7812,71.77734375,-48.828125,-57.6171875,-12.6953125
6,1734037441173.6875,56.640625,-15.13671875,-69.3359375,79.1015625
7,1734037441177.5938,37.59765625,10.7421875,-93.26171875,100.09765625
8,1734037441181.5,26.85546875,-7.32421875,-89.35546875,3.90625
9,1734037441185.4062,48.33984375,-54.6875,-59.5703125,-37.109375
10,1734037441189.3125,25.87890625,-15.13671875,-68.359375,31.25
11,1734037441193.2188,-25.87890625,65.91796875,-114.74609375,24.90234375
0,1734037441197.125,35.64453125,10.25390625,-92.7734375,26.3671875
1,1734037441201.0312,18.06640625,-26.85546875,-64.94140625,-70.80078125
2,1734037441204.9375,-45.8984375,14.16015625,-86.42578125,-81.0546875
3,1734037441208.8438,-24.90234375,24.4140625,-93.75,41.9921875
4,1734037441212.75,11.71875,-11.71875,-79.58984375,51.7578125
5,1734037441216.6562,-4.39453125,-36.62109375,-69.82421875,-55.17578125
6,1734037441220.5625,-41.50390625,-18.5546875,-74.70703125,-85.9375
7,1734037441224.4688,-51.26953125,11.71875,-97.16796875,1.953125
8,1734037441228.375,3.90625,-7.8125,-89.35546875,70.3125
9,1734037441232.2812,23.4375,-30.2734375,-69.82421875,4.8828125
10,1734037441236.1875,-72.265625,5.37109375,-88.37890625,-128.41796875
11,1734037441240.0938,-58.10546875,5.37109375,-100.09765625,-27.83203125
0,1734037441244,16.6015625,-15.13671875,-80.078125,104.4921875
1,1734037441247.9062,-0.48828125,-19.53125,-74.21875,25.390625
2,1734037441251.8125,-37.59765625,-25.87890625,-78.61328125,-109.86328125
3,1734037441255.7188,-19.53125,-18.5546875,-80.078125,-20.99609375
4,1734037441259.625,33.69140625,-27.34375,-76.171875,132.8125
5,1734037441263.5312,19.53125,-30.76171875,-75.68359375,75.1953125
6,1734037441267.4375,-31.73828125,-14.6484375,-95.703125,-104.00390625
7,1734037441271.3438,-35.15625,0.9765625,-98.14453125,-80.078125
8,1734037441275.25,28.80859375,-23.4375,-80.56640625,111.328125
9,1734037441279.1562,46.38671875,-32.2265625,-67.87109375,124.0234375
10,1734037441283.0625,-75.1953125,21.484375,-106.93359375,-125
11,1734037441286.9688,-79.58984375,1.46484375,-117.1875,-149.4140625
0,1734037441290.875,-29.78515625,1.46484375,-101.07421875,13.671875
1,1734037441294.7812,-33.69140625,17.08984375,-104.98046875,31.25
2,1734037441298.6875,-43.9453125,-6.8359375,-96.19140625,-70.80078125
3,1734037441302.5938,-44.43359375,-28.80859375,-84.9609375,-124.0234375
4,1734037441306.5,-18.06640625,-21.97265625,-85.9375,9.27734375
5,1734037441310.4062,1.46484375,6.34765625,-85.9375,94.23828125
6,1734037441314.3125,-12.6953125,9.765625,-91.30859375,-1.46484375
7,1734037441318.2188,-33.69140625,-18.5546875,-96.19140625,-111.328125
8,1734037441322.125,13.18359375,-36.62109375,-76.171875,25.87890625
9,1734037441326.0312,-40.52734375,22.4609375,-96.19140625,66.40625
10,1734037441329.9375,-74.21875,33.69140625,-129.39453125,-38.57421875
11,1734037441333.8438,-17.08984375,-28.3203125,-98.14453125,-80.56640625
0,1734037441337.75,-40.52734375,-17.08984375,-91.796875,-73.73046875
1,1734037441341.6562,-57.6171875,18.06640625,-118.1640625,10.25390625
2,1734037441345.5625,-24.4140625,6.34765625,-106.93359375,41.015625
3,1734037441349.4688,-26.3671875,-20.01953125,-82.51953125,-56.640625
4,1734037441353.375,-60.546875,-14.6484375,-82.03125,-112.3046875
5,1734037441357.2812,-40.0390625,0.48828125,-90.8203125,22.4609375
6,1734037441361.1875,-25.87890625,9.765625,-87.40234375,82.51953125
7,1734037441365.0938,13.18359375,-33.69140625,-65.4296875,37.59765625
8,1734037441369,-10.7421875,-36.62109375,-52.24609375,-36.62109375
9,1734037441372.9062,-109.86328125,55.6640625,-95.21484375,-64.94140625
10,1734037441376.8125,-57.6171875,29.296875,-110.83984375,30.76171875
11,1734037441380.7188,-3.41796875,-19.53125,-74.70703125,35.64453125
0,1734037441384.625,-66.40625,7.8125,-75.1953125,-118.65234375
1,1734037441388.5312,-82.51953125,17.08984375,-100.09765625,-102.05078125
2,1734037441392.4375,-7.8125,5.37109375,-97.65625,56.640625
3,1734037441396.3438,17.08984375,9.765625,-93.26171875,50.78125
4,1734037441400.25,-23.92578125,2.44140625,-96.19140625,-86.9140625
5,1734037441404.1562,-24.4140625,-5.37109375,-83.0078125,-81.0546875
6,1734037441408.0625,20.01953125,-8.30078125,-79.1015625,72.265625
7,1734037441411.9688,45.41015625,-8.7890625,-73.2421875,107.421875
8,1734037441415.875,-22.4609375,37.59765625,-85.44921875,-87.40234375
9,1734037441419.7812,-40.52734375,35.15625,-95.21484375,-149.90234375
10,1734037441423.6875,32.2265625,-8.30078125,-83.49609375,55.6640625
11,1734037441427.5938,38.0859375,12.20703125,-93.26171875,106.93359375
0,1734037441431.5,-26.85546875,61.03515625,-116.2109375,-56.15234375
1,1734037441435.4062,-33.203125,40.52734375,-113.28125,-134.27734375
2,1734037441439.3125,-1.46484375,41.015625,-94.7265625,-8.30078125
3,1734037441443.2188,-5.37109375,64.453125,-97.65625,72.75390625
4,1734037441447.125,-6.34765625,49.31640625,-105.46875,0
5,1734037441451.0312,-14.16015625,14.16015625,-90.8203125,-105.46875
6,1734037441454.9375,18.06640625,-1.953125,-72.265625,-5.859375
7,1734037441458.8438,23.4375,27.34375,-80.078125,111.328125
8,1734037441462.75,-48.33984375,74.21875,-109.375,-0.9765625
9,1734037441466.6562,-47.8515625,45.8984375,-98.14453125,-101.5625
10,1734037441470.5625,5.37109375,7.8125,-58.59375,-37.59765625
11,1734037441474.4688,0,49.8046875,-71.2890625,47.8515625
0,1734037441478.375,-12.6953125,51.26953125,-99.609375,32.71484375
1,1734037441482.2812,10.7421875,-8.7890625,-83.49609375,-30.2734375
2,1734037441486.1875,-31.25,-5.859375,-82.51953125,-106.4453125
3,1734037441490.0938,-25.87890625,36.1328125,-98.6328125,-28.3203125
4,1734037441494,17.08984375,20.99609375,-97.65625,57.12890625
5,1734037441497.9062,33.69140625,-25.87890625,-91.30859375,-4.8828125
6,1734037441501.8125,29.78515625,-43.9453125,-72.75390625,-88.8671875
7,1734037441505.7188,-30.76171875,22.4609375,-92.7734375,-83.984375
8,1734037441509.625,-29.78515625,38.57421875,-120.1171875,0.48828125
9,1734037441513.5312,46.38671875,1.953125,-82.51953125,29.78515625
10,1734037441517.4375,31.25,3.41796875,-62.01171875,-96.6796875
11,1734037441521.3438,-32.71484375,22.4609375,-80.078125,-106.4453125
0,1734037441525.25,12.20703125,16.11328125,-87.40234375,40.0390625
1,1734037441529.1562,61.03515625,-7.8125,-71.77734375,67.87109375
2,1734037441533.0625,36.1328125,-21.484375,-67.3828125,-57.12890625
3,1734037441536.9688,-1.46484375,-5.859375,-77.1484375,-105.95703125
4,1734037441540.875,-3.41796875,19.53125,-88.37890625,5.859375
5,1734037441544.7812,86.42578125,-40.52734375,-69.3359375,120.1171875
6,1734037441548.6875,86.42578125,-58.10546875,-49.31640625,27.34375
7,1734037441552.5938,-38.0859375,8.30078125,-76.171875,-168.9453125
8,1734037441556.5,-43.45703125,24.4140625,-89.35546875,-85.44921875
9,1734037441560.4062,23.92578125,0.48828125,-66.40625,70.3125
10,1734037441564.3125,-23.92578125,13.671875,-54.6875,-20.99609375
11,1734037441568.2188,-117.67578125,17.578125,-75.68359375,-194.3359375
0,1734037441572.125,-65.91796875,-9.27734375,-72.75390625,-89.84375
1,1734037441576.0312,-24.4140625,8.7890625,-67.87109375,46.38671875
2,1734037441579.9375,-54.19921875,25.87890625,-70.3125,-14.6484375
3,1734037441583.8438,-77.1484375,16.6015625,-66.40625,-145.5078125
4,1734037441587.75,-69.3359375,13.671875,-60.546875,-111.328125
5,1734037441591.6562,-16.11328125,23.92578125,-61.5234375,48.828125
6,1734037441595.5625,-5.859375,28.3203125,-66.89453125,48.828125
7,1734037441599.4688,-32.2265625,10.25390625,-58.10546875,-80.56640625
8,1734037441603.375,-46.875,-6.8359375,-50.29296875,-110.3515625
9,1734037441607.2812,-25.390625,9.765625,-57.12890625,13.18359375
10,1734037441611.1875,-30.76171875,39.55078125,-71.2890625,40.52734375
11,1734037441615.0938,-36.62109375,24.90234375,-70.80078125,-56.640625
0,1734037441619,-1.953125,-14.16015625,-47.8515625,-80.56640625
1,1734037441622.9062,4.8828125,13.671875,-43.9453125,29.78515625
2,1734037441626.8125,-51.26953125,73.2421875,-77.1484375,34.1796875
3,1734037441630.7188,-37.109375,36.62109375,-75.68359375,-15.625
4,1734037441634.625,-23.92578125,16.6015625,-49.8046875,-100.09765625
5,1734037441638.5312,-30.2734375,28.80859375,-49.31640625,-49.8046875
6,1734037441642.4375,-13.671875,25.390625,-61.03515625,77.1484375
7,1734037441646.3438,-6.8359375,16.11328125,-53.7109375,56.15234375
8,1734037441650.25,10.25390625,-34.66796875,-39.0625,-25.87890625
9,1734037441654.1562,30.2734375,-57.6171875,-26.85546875,-1.46484375
10,1734037441658.0625,-60.546875,31.73828125,-74.21875,-4.39453125
11,1734037441661.9688,-75.68359375,22.94921875,-101.07421875,-0.48828125
0,1734037441665.875,-36.62109375,-22.4609375,-71.2890625,-56.15234375
1,1734037441669.7812,-68.84765625,-3.41796875,-62.5,-140.625
2,1734037441673.6875,-52.24609375,4.39453125,-69.3359375,-31.25
3,1734037441677.5938,0.9765625,-6.34765625,-66.89453125,60.05859375
4,1734037441681.5,20.01953125,-24.4140625,-50.29296875,1.953125
5,1734037441685.4062,-18.5546875,-18.06640625,-40.52734375,-100.09765625
6,1734037441689.3125,-29.78515625,20.5078125,-51.26953125,-26.3671875
7,1734037441693.2188,9.765625,6.34765625,-61.5234375,90.33203125
8,1734037441697.125,16.6015625,-25.390625,-46.38671875,48.828125
9,1734037441701.0312,-56.640625,-6.34765625,-62.01171875,-143.5546875
10,1734037441704.9375,-36.62109375,-7.8125,-77.63671875,-100.5859375
11,1734037441708.8438,42.96875,-16.6015625,-59.08203125,104.4921875
0,1734037441712.75,27.83203125,-21.484375,-56.15234375,79.1015625
1,1734037441716.6562,-41.9921875,-9.765625,-66.89453125,-103.515625
2,1734037441720.5625,-28.80859375,-26.3671875,-61.5234375,-92.28515625
3,1734037441724.4688,32.2265625,-23.4375,-52.734375,77.1484375
4,1734037441728.375,48.828125,-10.25390625,-46.875,115.72265625
5,1734037441732.2812,32.71484375,-38.57421875,-47.36328125,3.41796875
6,1734037441736.1875,-5.859375,-39.55078125,-58.10546875,-80.56640625
7,1734037441740.0938,58.10546875,-51.26953125,-52.24609375,88.37890625
8,1734037441744,92.28515625,-37.59765625,-44.43359375,177.734375
9,1734037441747.9062,-33.203125,16.6015625,-78.125,-29.78515625
10,1734037441751.8125,-43.9453125,-31.25,-73.2421875,-122.0703125
11,1734037441755.7188,1.953125,-24.4140625,-64.453125,-14.16015625
0,1734037441759.625,32.2265625,-2.44140625,-72.265625,94.7265625
1,1734037441763.5312,25.87890625,-15.13671875,-63.96484375,53.22265625
2,1734037441767.4375,1.953125,-36.62109375,-63.4765625,-77.63671875
3,1734037441771.3438,-8.7890625,-34.1796875,-59.5703125,-49.31640625
4,1734037441775.25,-23.4375,-4.39453125,-76.171875,55.17578125
5,1734037441779.1562,4.8828125,-20.99609375,-71.77734375,73.73046875
6,1734037441783.0625,11.71875,-50.29296875,-60.05859375,-19.53125
7,1734037441786.9688,-30.2734375,-40.0390625,-64.94140625,-65.91796875
8,1734037441790.875,-43.9453125,0.48828125,-79.1015625,21.484375
9,1734037441794.7812,-23.4375,4.39453125,-83.0078125,78.125
10,1734037441798.6875,-2.44140625,-46.875,-61.5234375,28.80859375
11,1734037441802.5938,3.90625,-60.546875,-37.59765625,-30.76171875
0,1734037441806.5,-47.36328125,12.6953125,-66.40625,-10.7421875
1,1734037441810.4062,-20.01953125,4.8828125,-81.54296875,75.68359375
2,1734037441814.3125,17.578125,-34.1796875,-60.546875,57.12890625
3,1734037441818.2188,-5.859375,-45.8984375,-53.7109375,-52.24609375
4,1734037441822.125,-34.66796875,-29.296875,-63.4765625,-15.13671875
5,1734037441826.0312,-15.625,-22.94921875,-67.3828125,99.12109375
6,1734037441829.9375,45.8984375,-57.12890625,-49.31640625,128.90625
7,1734037441833.8438,59.08203125,-68.359375,-23.4375,59.5703125
8,1734037441837.75,-55.6640625,19.04296875,-58.59375,-60.546875
9,1734037441841.6562,-42.48046875,21.484375,-82.03125,40.52734375
10,1734037441845.5625,24.90234375,-17.578125,-56.15234375,118.65234375
11,1734037441849.4688,-20.99609375,-21.484375,-45.41015625,-11.23046875
0,1734037441853.375,-46.875,-14.6484375,-45.41015625,-66.89453125
1,1734037441857.2812,0.48828125,-4.8828125,-50.78125,70.80078125
2,1734037441861.1875,25.87890625,-3.41796875,-54.6875,130.37109375
3,1734037441865.0938,-17.08984375,4.8828125,-53.7109375,0.48828125
4,1734037441869,-32.2265625,-6.34765625,-48.828125,-98.14453125
5,1734037441872.9062,-1.46484375,-19.04296875,-53.22265625,28.80859375
6,1734037441876.8125,62.01171875,-39.55078125,-41.015625,185.05859375
7,1734037441880.7188,21.97265625,-13.18359375,-43.9453125,69.3359375
8,1734037441884.625,-66.89453125,4.39453125,-65.91796875,-139.6484375
9,1734037441888.5312,-19.04296875,-38.0859375,-52.734375,-26.85546875
10,1734037441892.4375,28.80859375,-35.15625,-44.43359375,140.625
11,1734037441896.3438,-20.01953125,4.8828125,-52.24609375,67.87109375
0,1734037441900.25,-45.41015625,-19.04296875,-37.59765625,-62.98828125
1,1734037441904.1562,-29.296875,-45.8984375,-15.625,-46.875
2,1734037441908.0625,-13.18359375,-27.83203125,-23.92578125,75.68359375
3,1734037441911.9688,-9.765625,-28.3203125,-38.57421875,82.03125
4,1734037441915.875,-9.765625,-52.734375,-35.64453125,-20.01953125
5,1734037441919.7812,7.32421875,-57.6171875,-22.94921875,-43.45703125
6,1734037441923.6875,16.11328125,-17.578125,-20.5078125,70.80078125
7,1734037441927.5938,-5.859375,-1.953125,-34.1796875,99.12109375
8,1734037441931.5,-32.71484375,-30.2734375,-28.80859375,2.44140625
9,1734037441935.4062,-2.44140625,-74.21875,-3.90625,-41.50390625
10,1734037441939.3125,6.8359375,-40.52734375,-4.8828125,37.109375
11,1734037441943.2188,-59.08203125,45.41015625,-55.6640625,33.69140625
0,1734037441947.125,-29.296875,7.32421875,-59.5703125,12.20703125
1,1734037441951.0312,-33.69140625,-11.71875,-36.1328125,-86.42578125
2,1734037441954.9375,-62.98828125,26.85546875,-35.64453125,-82.03125
3,1734037441958.8438,-20.5078125,28.80859375,-38.0859375,44.43359375
4,1734037441962.75,17.578125,-12.20703125,-30.76171875,56.640625
5,1734037441966.6562,2.9296875,-36.1328125,-12.20703125,-41.9921875
6,1734037441970.5625,-34.66796875,-10.7421875,-13.671875,-75.1953125
7,1734037441974.4688,-35.64453125,29.296875,-39.55078125,14.6484375
8,1734037441978.375,17.578125,7.8125,-41.9921875,91.30859375
9,1734037441982.2812,24.90234375,-14.6484375,-25.87890625,12.6953125
10,1734037441986.1875,-53.7109375,14.6484375,-38.57421875,-125
11,1734037441990.0938,-55.17578125,27.83203125,-56.15234375,-34.66796875
0,1734037441994,15.13671875,-2.9296875,-49.8046875,102.5390625
1,1734037441997.9062,7.32421875,-20.01953125,-37.109375,41.50390625
2,1734037442001.8125,-75.68359375,33.203125,-47.8515625,-140.625
3,1734037442005.7188,-42.48046875,44.921875,-47.36328125,-56.15234375
4,1734037442009.625,11.23046875,21.484375,-36.1328125,92.28515625
5,1734037442013.5312,12.6953125,4.39453125,-24.90234375,66.40625
6,1734037442017.4375,-32.71484375,6.34765625,-22.4609375,-81.54296875
7,1734037442021.3438,-54.6875,20.5078125,-36.1328125,-89.84375
8,1734037442025.25,20.01953125,-15.13671875,-32.71484375,97.16796875
9,1734037442029.1562,31.25,-19.53125,-20.99609375,113.28125
10,1734037442033.0625,-84.47265625,34.66796875,-48.33984375,-120.1171875
11,1734037442036.9688,-75.68359375,9.27734375,-48.828125,-144.04296875
0,1734037442040.875,-14.16015625,-1.953125,-39.55078125,26.85546875
1,1734037442044.7812,-16.6015625,8.30078125,-45.41015625,68.359375
2,1734037442048.6875,-51.26953125,-1.953125,-45.41015625,-61.5234375
3,1734037442052.5938,-53.22265625,-34.66796875,-35.15625,-137.20703125
4,1734037442056.5,-28.80859375,-41.50390625,-36.1328125,-6.8359375
5,1734037442060.4062,-32.2265625,-12.6953125,-44.43359375,59.08203125
6,1734037442064.3125,-40.52734375,4.8828125,-44.921875,-20.99609375
7,1734037442068.2188,-37.59765625,-7.8125,-39.0625,-101.5625
8,1734037442072.125,-17.578125,12.20703125,-27.34375,-19.04296875
9,1734037442076.0312,-44.921875,69.82421875,-48.828125,30.2734375
10,1734037442079.9375,-52.24609375,51.7578125,-61.5234375,-8.30078125
11,1734037442083.8438,-24.90234375,0,-34.1796875,-80.078125
0,1734037442087.75,-44.921875,14.6484375,-34.66796875,-89.35546875
1,1734037442091.6562,-49.8046875,55.17578125,-53.7109375,11.71875
2,1734037442095.5625,-17.08984375,34.66796875,-54.6875,39.55078125
3,1734037442099.4688,-8.7890625,-2.9296875,-30.2734375,-38.0859375
4,1734037442103.375,-42.48046875,9.765625,-30.76171875,-100.09765625
5,1734037442107.2812,-19.53125,28.80859375,-54.19921875,14.6484375
6,1734037442111.1875,1.46484375,39.0625,-54.6875,82.51953125
7,1734037442115.0938,24.90234375,-15.13671875,-32.2265625,30.76171875
8,1734037442119,-36.62109375,-11.23046875,-31.73828125,-103.515625
9,1734037442122.9062,-96.6796875,55.17578125,-61.5234375,-93.26171875
10,1734037442126.8125,-18.5546875,34.66796875,-56.640625,59.5703125
11,1734037442130.7188,41.015625,-20.5078125,-23.92578125,80.078125
0,1734037442134.625,-27.34375,-14.16015625,-17.578125,-71.2890625
1,1734037442138.5312,-92.28515625,29.78515625,-44.43359375,-98.14453125
2,1734037442142.4375,-1.46484375,5.859375,-37.59765625,79.58984375
3,1734037442146.3438,18.5546875,3.90625,-37.59765625,71.77734375
4,1734037442150.25,-27.34375,-13.671875,-35.64453125,-66.89453125
5,1734037442154.1562,-33.69140625,-26.3671875,-25.87890625,-68.84765625
6,1734037442158.0625,-12.6953125,-14.6484375,-36.62109375,58.10546875
7,1734037442161.9688,61.03515625,-69.82421875,-20.5078125,146.97265625
8,1734037442165.875,-14.6484375,-35.64453125,-31.73828125,-23.92578125
9,1734037442169.7812,-96.19140625,4.39453125,-59.5703125,-156.25
10,1734037442173.6875,6.8359375,-28.80859375,-38.57421875,36.62109375
11,1734037442177.5938,32.71484375,-16.11328125,-26.85546875,117.67578125
0,1734037442181.5,-18.5546875,-8.30078125,-36.1328125,0.9765625
1,1734037442185.4062,-45.8984375,-20.01953125,-33.69140625,-92.28515625
2,1734037442189.3125,-0.48828125,-8.7890625,-23.4375,26.85546875
3,1734037442193.2188,20.5078125,10.25390625,-37.59765625,107.421875
4,1734037442197.125,0.9765625,-0.48828125,-46.875,34.66796875
5,1734037442201.0312,-17.578125,-28.3203125,-25.87890625,-57.12890625
6,1734037442204.9375,2.9296875,-54.6875,-11.71875,24.4140625
7,1734037442208.8438,11.23046875,-39.55078125,-24.4140625,130.37109375
8,1734037442212.75,-44.43359375,-8.7890625,-57.12890625,48.33984375
9,1734037442216.6562,-67.3828125,-22.4609375,-60.546875,-90.8203125
10,1734037442220.5625,-14.16015625,-65.91796875,-34.1796875,-53.7109375
11,1734037442224.4688,6.8359375,-34.1796875,-32.2265625,80.56640625
0,1734037442228.375,-43.9453125,25.87890625,-61.03515625,31.73828125
1,1734037442232.2812,-20.01953125,-16.6015625,-38.57421875,-28.3203125
2,1734037442236.1875,-46.875,-22.4609375,-10.25390625,-82.03125
3,1734037442240.0938,-46.38671875,19.53125,-14.16015625,1.953125
4,1734037442244,-12.20703125,16.6015625,-15.625,83.49609375
5,1734037442247.9062,11.23046875,-24.90234375,-1.953125,44.921875
6,1734037442251.8125,5.859375,-29.78515625,15.625,-30.2734375
7,1734037442255.7188,-50.29296875,36.62109375,-11.71875,-39.55078125
8,1734037442259.625,-30.2734375,54.6875,-34.66796875,42.48046875
9,1734037442263.5312,13.671875,-4.39453125,-18.5546875,63.96484375
10,1734037442267.4375,-10.25390625,-50.78125,-2.44140625,-47.36328125
11,1734037442271.3438,-52.24609375,-22.4609375,-7.32421875,-70.80078125
0,1734037442275.25,-41.015625,15.625,-27.34375,38.57421875
1,1734037442279.1562,26.85546875,-25.87890625,-8.7890625,108.3984375
2,1734037442283.0625,-5.859375,-54.6875,2.44140625,-10.7421875
3,1734037442286.9688,-77.63671875,-27.83203125,-22.94921875,-130.859375
4,1734037442290.875,-25.390625,-30.76171875,-28.3203125,14.6484375
5,1734037442294.7812,56.640625,-53.22265625,-5.37109375,146.97265625
6,1734037442298.6875,24.4140625,-31.25,-9.27734375,22.4609375
7,1734037442302.5938,-45.41015625,-10.25390625,-29.78515625,-120.1171875
8,1734037442306.5,-39.55078125,3.90625,-39.0625,-41.9921875
9,1734037442310.4062,22.94921875,-33.69140625,-34.1796875,97.65625
10,1734037442314.3125,-9.27734375,-32.71484375,-31.25,28.80859375
11,1734037442318.2188,-124.0234375,12.6953125,-55.17578125,-189.94140625
0,1734037442322.125,-62.01171875,-9.765625,-45.8984375,-86.42578125
1,1734037442326.0312,8.7890625,-11.23046875,-37.59765625,72.75390625
2,1734037442329.9375,-18.5546875,-1.46484375,-49.8046875,24.4140625
3,1734037442333.8438,-53.7109375,-17.08984375,-47.8515625,-89.35546875
4,1734037442337.75,-31.73828125,-32.2265625,-31.73828125,-59.5703125
5,1734037442341.6562,-10.25390625,-13.671875,-36.62109375,59.08203125
6,1734037442345.5625,-14.6484375,-4.39453125,-42.48046875,66.89453125
7,1734037442349.4688,-50.78125,-10.7421875,-41.9921875,-65.91796875
8,1734037442353.375,-63.4765625,-35.64453125,-34.1796875,-99.609375
9,1734037442357.2812,-4.8828125,-33.69140625,-12.20703125,61.5234375
10,1734037442361.1875,-45.8984375,23.4375,-38.57421875,45.41015625
11,1734037442365.0938,-74.70703125,12.6953125,-47.36328125,-62.01171875
0,1734037442369,-45.8984375,-11.23046875,-13.18359375,-99.12109375
1,1734037442372.9062,-31.73828125,6.34765625,-26.3671875,-15.13671875
2,1734037442376.8125,-34.66796875,14.6484375,-49.31640625,46.875
3,1734037442380.7188,-29.296875,-20.5078125,-39.0625,4.8828125
4,1734037442384.625,-16.6015625,-63.4765625,-18.5546875,-58.59375
5,1734037442388.5312,-31.73828125,-36.1328125,-21.97265625,-35.15625
6,1734037442392.4375,-39.55078125,-0.9765625,-46.875,31.25
7,1734037442396.3438,-26.85546875,-5.859375,-49.8046875,20.01953125
8,1734037442400.25,4.39453125,-59.08203125,-24.4140625,-42.48046875
9,1734037442404.1562,-20.01953125,-40.0390625,-15.13671875,-66.89453125
10,1734037442408.0625,-90.8203125,50.78125,-62.5,-63.4765625
11,1734037442411.9688,-45.41015625,10.7421875,-66.89453125,-11.23046875
0,1734037442415.875,-39.55078125,-30.2734375,-39.55078125,-83.49609375
1,1734037442419.7812,-78.125,-11.23046875,-28.3203125,-161.1328125
2,1734037442423.6875,-54.6875,7.8125,-28.3203125,-38.57421875
3,1734037442427.5938,-11.71875,-7.32421875,-27.83203125,56.640625
4,1734037442431.5,-9.27734375,-35.15625,-16.6015625,-11.71875
5,1734037442435.4062,-50.78125,-33.69140625,-17.08984375,-116.69921875
6,1734037442439.3125,-42.96875,2.44140625,-28.80859375,-45.8984375
7,1734037442443.2188,-1.46484375,0.48828125,-33.203125,64.453125
8,1734037442447.125,40.52734375,-48.828125,-9.765625,79.58984375
9,1734037442451.0312,-66.89453125,-14.6484375,-22.94921875,-119.140625
10,1734037442454.9375,-138.671875,20.01953125,-52.734375,-174.31640625
11,1734037442458.8438,-41.015625,-14.6484375,-34.1796875,15.625
0,1734037442462.75,-24.90234375,-23.4375,-29.296875,25.390625
1,1734037442466.6562,-80.078125,-18.06640625,-28.80859375,-124.0234375
2,1734037442470.5625,-84.47265625,-10.25390625,-24.4140625,-143.06640625
3,1734037442474.4688,-40.0390625,8.7890625,-24.4140625,14.6484375
4,1734037442478.375,-29.78515625,36.1328125,-26.3671875,60.05859375
5,1734037442482.2812,-50.78125,20.5078125,-18.06640625,-45.41015625
6,1734037442486.1875,-89.84375,12.20703125,-10.25390625,-133.7890625
7,1734037442490.0938,-23.92578125,5.37109375,-6.8359375,26.85546875
8,1734037442494,30.76171875,3.41796875,0.48828125,150.87890625
9,1734037442497.9062,-102.05078125,62.5,-36.62109375,-62.5
10,1734037442501.8125,-156.25,36.62109375,-50.78125,-201.66015625
11,1734037442505.7188,-96.6796875,16.6015625,-26.85546875,-76.66015625
0,1734037442509.625,-67.87109375,44.43359375,-27.83203125,25.87890625
1,1734037442513.5312,-67.3828125,41.9921875,-31.73828125,-17.578125
2,1734037442517.4375,-69.3359375,14.6484375,-12.20703125,-114.74609375
3,1734037442521.3438,-77.63671875,22.94921875,-5.859375,-96.6796875
4,1734037442525.25,-62.01171875,38.0859375,-17.08984375,22.94921875
5,1734037442529.1562,-34.66796875,15.625,-12.6953125,39.55078125
6,1734037442533.0625,-48.33984375,-9.765625,-12.6953125,-77.1484375
7,1734037442536.9688,-60.546875,-8.30078125,-1.953125,-94.23828125
8,1734037442540.875,-108.88671875,61.03515625,-24.4140625,-44.43359375
9,1734037442544.7812,-92.28515625,53.7109375,-37.59765625,0.48828125
10,1734037442548.6875,-29.296875,-22.94921875,-4.8828125,-7.32421875
11,1734037442552.5938,-68.359375,-14.16015625,-5.37109375,-107.421875
0,1734037442556.5,-87.890625,61.5234375,-31.25,-62.01171875
1,1734037442560.4062,-50.29296875,60.546875,-36.1328125,31.25
2,1734037442564.3125,-17.08984375,-1.46484375,-17.578125,21.484375
3,1734037442568.2188,-59.5703125,-6.34765625,-9.27734375,-104.98046875
4,1734037442572.125,-103.515625,41.015625,-23.92578125,-107.421875
5,1734037442576.0312,-40.0390625,37.59765625,-16.6015625,46.875
6,1734037442579.9375,15.13671875,-1.953125,9.27734375,81.54296875
7,1734037442583.8438,-21.97265625,-9.765625,7.32421875,-47.36328125
8,1734037442587.75,-107.91015625,46.38671875,-38.0859375,-152.34375
9,1734037442591.6562,-71.2890625,62.98828125,-53.22265625,-30.76171875
10,1734037442595.5625,22.94921875,22.4609375,-17.578125,82.51953125
11,1734037442599.4688,-21.484375,18.5546875,-10.25390625,-56.15234375
0,1734037442603.375,-105.95703125,43.9453125,-39.55078125,-189.94140625
1,1734037442607.2812,-24.4140625,16.11328125,-30.76171875,-19.53125
2,1734037442611.1875,13.671875,7.32421875,-17.08984375,60.546875
3,1734037442615.0938,-40.52734375,15.13671875,-37.59765625,-79.58984375
4,1734037442619,-74.70703125,-2.44140625,-48.33984375,-183.10546875
5,1734037442622.9062,-13.18359375,-12.6953125,-37.59765625,-40.0390625
6,1734037442626.8125,41.50390625,1.46484375,-26.85546875,81.54296875
7,1734037442630.7188,-24.90234375,19.04296875,-47.8515625,-31.73828125
8,1734037442634.625,-82.51953125,1.46484375,-55.6640625,-179.19921875
9,1734037442638.5312,-33.203125,-23.4375,-36.62109375,-83.984375
10,1734037442642.4375,20.5078125,-12.20703125,-38.57421875,57.12890625
11,1734037442646.3438,-9.27734375,2.9296875,-52.734375,-7.32421875
0,1734037442650.25,-43.9453125,-6.8359375,-49.31640625,-130.37109375
1,1734037442654.1562,-30.76171875,4.39453125,-40.52734375,-111.328125
2,1734037442658.0625,10.25390625,15.625,-48.828125,16.6015625
3,1734037442661.9688,25.390625,-5.859375,-50.78125,53.22265625
4,1734037442665.875,6.8359375,-26.85546875,-43.9453125,-51.7578125
5,1734037442669.7812,16.6015625,-55.6640625,-37.59765625,-89.35546875
6,1734037442673.6875,42.96875,-27.83203125,-40.0390625,39.0625
7,1734037442677.5938,-8.30078125,33.203125,-70.80078125,24.90234375
8,1734037442681.5,-20.5078125,11.23046875,-79.58984375,-69.82421875
9,1734037442685.4062,5.859375,-43.45703125,-48.33984375,-111.81640625
10,1734037442689.3125,-31.25,-11.71875,-59.5703125,-60.546875
11,1734037442693.2188,-33.69140625,28.3203125,-88.37890625,-9.765625
0,1734037442697.125,28.80859375,-5.37109375,-64.453125,-1.953125
1,1734037442701.0312,-2.9296875,-15.13671875,-53.22265625,-114.74609375
2,1734037442704.9375,-37.59765625,6.8359375,-66.89453125,-130.859375
3,1734037442708.8438,-0.9765625,17.578125,-73.2421875,-6.8359375
4,1734037442712.75,26.85546875,-13.18359375,-64.94140625,20.5078125
5,1734037442716.6562,3.41796875,-48.33984375,-51.26953125,-82.03125
6,1734037442720.5625,-37.59765625,-29.296875,-50.29296875,-135.7421875
7,1734037442724.4688,-7.8125,-10.25390625,-56.15234375,-18.5546875
8,1734037442728.375,36.62109375,-30.76171875,-61.03515625,50.29296875
9,1734037442732.2812,43.9453125,-67.3828125,-40.52734375,-10.7421875
10,1734037442736.1875,-62.01171875,-26.85546875,-45.8984375,-167.96875
11,1734037442740.0938,-63.4765625,-5.859375,-62.5,-91.796875
0,1734037442744,30.76171875,-26.3671875,-43.9453125,58.10546875
1,1734037442747.9062,11.71875,-27.83203125,-41.9921875,-23.92578125
2,1734037442751.8125,-60.05859375,-22.4609375,-54.6875,-174.8046875
3,1734037442755.7188,-41.50390625,-33.69140625,-58.10546875,-95.21484375
4,1734037442759.625,21.97265625,-44.43359375,-49.8046875,57.6171875
5,1734037442763.5312,18.06640625,-42.48046875,-43.9453125,25.390625
6,1734037442767.4375,-38.0859375,-46.875,-42.96875,-125.9765625
7,1734037442771.3438,-45.8984375,-44.921875,-44.43359375,-120.1171875
8,1734037442775.25,29.296875,-49.31640625,-39.55078125,62.01171875
9,1734037442779.1562,18.5546875,-16.11328125,-43.45703125,50.78125
10,1734037442783.0625,-64.94140625,3.90625,-61.5234375,-128.41796875
11,1734037442786.9688,-60.05859375,-1.46484375,-56.15234375,-153.3203125
0,1734037442790.875,53.7109375,-26.3671875,-25.87890625,69.3359375
1,1734037442794.7812,64.94140625,-16.11328125,-15.625,134.765625
2,1734037442798.6875,-62.01171875,34.1796875,-62.98828125,-85.9375
3,1734037442802.5938,-63.96484375,-6.34765625,-64.94140625,-149.90234375
4,1734037442806.5,-14.16015625,-13.18359375,-42.96875,-6.34765625
5,1734037442810.4062,8.30078125,0.48828125,-42.48046875,94.23828125
6,1734037442814.3125,1.46484375,-5.859375,-38.0859375,35.15625
7,1734037442818.2188,-13.671875,-18.06640625,-35.15625,-75.1953125
8,1734037442822.125,-8.7890625,-5.37109375,-39.55078125,-12.6953125
9,1734037442826.0312,-34.66796875,42.48046875,-66.40625,43.9453125
10,1734037442829.9375,-33.69140625,29.78515625,-75.68359375,-2.44140625
11,1734037442833.8438,7.32421875,-36.1328125,-45.8984375,-49.31640625
0,1734037442837.75,0.48828125,-24.4140625,-40.52734375,-44.921875
1,1734037442841.6562,-10.7421875,30.76171875,-71.2890625,20.99609375
2,1734037442845.5625,25.390625,-9.27734375,-71.77734375,61.5234375
3,1734037442849.4688,23.4375,-48.828125,-41.015625,-20.99609375
4,1734037442853.375,-7.32421875,-25.87890625,-38.0859375,-84.9609375
5,1734037442857.2812,25.390625,-19.53125,-54.19921875,38.0859375
6,1734037442861.1875,51.26953125,-32.71484375,-59.08203125,100.09765625
7,1734037442865.0938,75.1953125,-81.0546875,-44.43359375,63.96484375
8,1734037442869,36.1328125,-79.1015625,-22.4609375,-33.69140625
9,1734037442872.9062,-66.89453125,35.15625,-61.03515625,-82.03125
10,1734037442876.8125,-2.9296875,47.8515625,-72.265625,43.45703125
11,1734037442880.7188,37.109375,25.390625,-42.96875,44.43359375
0,1734037442884.625,-30.2734375,14.6484375,-43.45703125,-105.46875
1,1734037442888.5312,-20.5078125,5.859375,-43.45703125,-58.10546875
2,1734037442892.4375,39.55078125,-1.46484375,-39.55078125,95.21484375
3,1734037442896.3438,43.9453125,-8.30078125,-35.64453125,74.21875
4,1734037442900.25,-16.6015625,-11.71875,-43.45703125,-92.7734375
5,1734037442904.1562,-29.78515625,-27.34375,-48.828125,-115.72265625
6,1734037442908.0625,27.34375,-31.25,-44.43359375,50.78125
7,1734037442911.9688,48.828125,-36.1328125,-37.109375,100.5859375
8,1734037442915.875,-26.85546875,-22.4609375,-47.36328125,-84.47265625
9,1734037442919.7812,-55.17578125,-32.71484375,-55.17578125,-171.875
10,1734037442923.6875,19.53125,-58.10546875,-35.15625,0.48828125
11,1734037442927.5938,40.0390625,-48.828125,-36.62109375,77.63671875
0,1734037442931.5,-7.8125,-40.52734375,-50.78125,-41.50390625
1,1734037442935.4062,-30.76171875,-57.12890625,-40.52734375,-133.30078125
2,1734037442939.3125,8.30078125,-36.1328125,-27.83203125,-24.90234375
3,1734037442943.2188,32.71484375,-8.7890625,-33.69140625,73.73046875
4,1734037442947.125,22.94921875,-12.6953125,-26.3671875,25.87890625
5,1734037442951.0312,-25.390625,-16.11328125,-12.20703125,-109.375
6,1734037442954.9375,5.859375,-31.73828125,-4.39453125,-47.8515625
7,1734037442958.8438,80.078125,-39.55078125,5.859375,125.48828125
8,1734037442962.75,-17.08984375,26.85546875,-35.15625,0.9765625
9,1734037442966.6562,-56.15234375,8.30078125,-55.17578125,-145.01953125
10,1734037442970.5625,-22.94921875,-16.11328125,-25.87890625,-112.79296875
11,1734037442974.4688,-19.53125,28.3203125,-37.109375,-8.7890625
0,1734037442978.375,1.953125,29.296875,-41.015625,43.45703125
1,1734037442982.2812,5.37109375,-10.25390625,-21.484375,-26.3671875
2,1734037442986.1875,-23.92578125,-28.80859375,-15.625,-113.76953125
3,1734037442990.0938,-18.06640625,6.34765625,-23.92578125,-33.203125
4,1734037442994,11.71875,10.25390625,-31.25,58.10546875
5,1734037442997.9062,24.90234375,-31.25,-19.53125,21.484375
6,1734037443001.8125,24.90234375,-42.96875,4.39453125,-70.80078125
7,1734037443005.7188,-23.92578125,11.23046875,-12.20703125,-63.96484375
8,1734037443009.625,-40.0390625,38.0859375,-44.43359375,8.30078125
9,1734037443013.5312,20.01953125,-13.671875,-31.25,26.85546875
10,1734037443017.4375,7.32421875,-40.52734375,-14.6484375,-79.1015625
11,1734037443021.3438,-70.3125,13.671875,-34.1796875,-136.23046875
0,1734037443025.25,-23.92578125,20.5078125,-41.015625,3.41796875
1,1734037443029.1562,39.55078125,-4.8828125,-21.97265625,65.4296875
2,1734037443033.0625,4.39453125,-10.7421875,-11.71875,-56.640625
3,1734037443036.9688,-50.29296875,-3.90625,-23.4375,-140.13671875
4,1734037443040.875,-0.9765625,-9.765625,-25.87890625,7.32421875
5,1734037443044.7812,71.2890625,-41.50390625,-8.7890625,128.90625
6,1734037443048.6875,27.34375,-33.203125,-12.6953125,9.765625
7,1734037443052.5938,-30.76171875,-20.5078125,-27.34375,-119.140625
8,1734037443056.5,-12.20703125,-2.9296875,-40.52734375,-31.73828125
9,1734037443060.4062,71.2890625,-35.64453125,-26.85546875,117.1875
10,1734037443064.3125,73.73046875,-50.78125,-3.90625,95.21484375
11,1734037443068.2188,-61.5234375,13.18359375,-40.52734375,-153.80859375
0,1734037443072.125,-51.7578125,-11.71875,-56.15234375,-113.76953125
1,1734037443076.0312,13.18359375,-22.4609375,-45.8984375,60.546875
2,1734037443079.9375,8.30078125,-13.18359375,-49.8046875,33.69140625
3,1734037443083.8438,-17.08984375,-29.78515625,-53.22265625,-100.09765625
4,1734037443087.75,-22.94921875,-34.66796875,-43.45703125,-94.23828125
5,1734037443091.6562,32.71484375,-33.69140625,-33.203125,77.1484375
6,1734037443095.5625,30.76171875,-23.92578125,-41.015625,76.171875
7,1734037443099.4688,-32.2265625,-15.625,-49.31640625,-84.9609375
8,1734037443103.375,-15.13671875,-42.48046875,-42.48046875,-106.4453125
9,1734037443107.2812,44.921875,-37.109375,-37.109375,52.24609375
10,1734037443111.1875,17.08984375,13.18359375,-56.640625,63.4765625
11,1734037443115.0938,6.34765625,0.48828125,-55.17578125,-8.30078125
0,1734037443119,18.06640625,-24.90234375,-35.15625,-57.6171875
1,1734037443122.9062,2.9296875,-1.953125,-38.57421875,0.48828125
2,1734037443126.8125,-19.53125,29.78515625,-57.6171875,50.29296875
3,1734037443130.7188,0.48828125,0.9765625,-53.7109375,17.578125
4,1734037443134.625,-2.44140625,-27.34375,-34.1796875,-73.2421875
5,1734037443138.5312,-0.48828125,-20.5078125,-33.203125,-28.80859375
6,1734037443142.4375,21.97265625,-3.90625,-44.43359375,94.23828125
7,1734037443146.3438,18.06640625,2.9296875,-48.828125,63.4765625
8,1734037443150.25,20.01953125,-48.828125,-36.62109375,-18.5546875
9,1734037443154.1562,11.23046875,-21.97265625,-20.99609375,-26.3671875
10,1734037443158.0625,-42.96875,74.21875,-62.01171875,-11.71875
11,1734037443161.9688,-9.765625,40.0390625,-72.265625,36.62109375
0,1734037443165.875,-3.41796875,6.34765625,-49.8046875,-26.3671875
1,1734037443169.7812,-35.64453125,3.41796875,-43.9453125,-97.16796875
2,1734037443173.6875,-20.5078125,11.23046875,-42.96875,-1.953125
3,1734037443177.5938,15.13671875,4.8828125,-46.38671875,83.49609375
4,1734037443181.5,25.87890625,-5.37109375,-33.69140625,31.25
5,1734037443185.4062,-22.4609375,16.11328125,-36.1328125,-75.1953125
6,1734037443189.3125,-20.5078125,39.0625,-50.78125,-11.23046875
7,1734037443193.2188,16.11328125,35.15625,-51.7578125,88.8671875
8,1734037443197.125,29.296875,23.92578125,-40.52734375,77.63671875
9,1734037443201.0312,-56.640625,46.875,-54.19921875,-106.4453125
10,1734037443204.9375,-72.265625,41.015625,-65.4296875,-107.91015625
11,1734037443208.8438,3.90625,13.18359375,-50.29296875,77.63671875
0,1734037443212.75,0.9765625,-2.44140625,-51.26953125,72.75390625
1,1734037443216.6562,-59.08203125,-7.8125,-59.08203125,-80.078125
2,1734037443220.5625,-58.10546875,-1.953125,-52.734375,-100.5859375
3,1734037443224.4688,4.39453125,8.7890625,-48.33984375,53.7109375
4,1734037443228.375,29.78515625,17.578125,-47.36328125,109.86328125
5,1734037443232.2812,-6.8359375,13.18359375,-50.78125,-1.953125
6,1734037443236.1875,-51.26953125,7.32421875,-55.6640625,-114.2578125
7,1734037443240.0938,5.859375,-8.7890625,-48.33984375,29.296875
8,1734037443244,90.33203125,-39.0625,-31.25,191.40625
9,1734037443247.9062,-3.41796875,10.7421875,-58.10546875,13.671875
10,1734037443251.8125,-92.28515625,28.80859375,-73.73046875,-169.43359375
11,1734037443255.7188,-55.17578125,10.25390625,-51.26953125,-65.91796875
0,1734037443259.625,-34.66796875,16.11328125,-59.5703125,45.8984375
1,1734037443263.5312,-41.50390625,0.9765625,-64.453125,15.13671875
2,1734037443267.4375,-48.33984375,-28.80859375,-51.26953125,-90.8203125
3,1734037443271.3438,-42.96875,-14.6484375,-49.8046875,-91.30859375
4,1734037443275.25,-32.2265625,11.23046875,-65.91796875,29.296875
5,1734037443279.1562,-8.7890625,-5.37109375,-61.5234375,67.87109375
6,1734037443283.0625,-30.76171875,-27.83203125,-58.59375,-53.22265625
7,1734037443286.9688,-20.01953125,-70.3125,-40.0390625,-42.48046875
8,1734037443290.875,-49.31640625,-13.671875,-59.5703125,27.34375
9,1734037443294.7812,-77.1484375,28.3203125,-99.12109375,4.8828125
10,1734037443298.6875,-31.25,-24.90234375,-77.63671875,-27.83203125
11,1734037443302.5938,-65.4296875,-30.76171875,-69.3359375,-118.1640625
0,1734037443306.5,-75.1953125,5.37109375,-84.9609375,-56.15234375
1,1734037443310.4062,-38.57421875,2.44140625,-85.9375,54.6875
2,1734037443314.3125,-31.25,-25.390625,-66.89453125,25.390625
3,1734037443318.2188,-81.54296875,-29.296875,-64.94140625,-106.93359375
4,1734037443322.125,-90.33203125,-7.8125,-78.61328125,-77.63671875
5,1734037443326.0312,-15.625,-4.8828125,-73.73046875,79.1015625
6,1734037443329.9375,5.37109375,-15.13671875,-61.03515625,83.0078125
7,1734037443333.8438,-49.8046875,-6.34765625,-65.91796875,-70.80078125
8,1734037443337.75,-78.61328125,22.4609375,-84.9609375,-115.234375
9,1734037443341.6562,-37.109375,39.55078125,-86.42578125,31.73828125
10,1734037443345.5625,30.2734375,-11.23046875,-62.01171875,129.8828125
11,1734037443349.4688,6.34765625,-37.59765625,-44.43359375,33.69140625
0,1734037443353.375,-107.91015625,33.69140625,-75.68359375,-137.20703125
1,1734037443357.2812,-53.7109375,36.1328125,-88.8671875,-6.34765625
2,1734037443361.1875,10.25390625,5.37109375,-71.77734375,97.65625
3,1734037443365.0938,-23.4375,-18.5546875,-70.3125,-10.25390625
4,1734037443369,-56.640625,-42.48046875,-67.3828125,-104.00390625
5,1734037443372.9062,-15.13671875,-51.26953125,-58.59375,23.92578125
6,1734037443376.8125,50.78125,-56.15234375,-45.41015625,173.828125
7,1734037443380.7188,-13.18359375,-27.83203125,-62.5,54.6875
8,1734037443384.625,-73.73046875,-39.55078125,-76.171875,-107.421875
9,1734037443388.5312,-12.20703125,-66.40625,-60.05859375,-24.4140625
10,1734037443392.4375,30.2734375,-47.8515625,-64.94140625,104.4921875
11,1734037443396.3438,24.4140625,-49.31640625,-75.1953125,82.51953125
0,1734037443400.25,-10.7421875,-62.5,-68.359375,-44.921875
1,1734037443404.1562,0,-81.0546875,-50.29296875,-38.57421875
2,1734037443408.0625,39.0625,-74.21875,-52.734375,93.75
3,1734037443411.9688,-5.37109375,-39.55078125,-80.56640625,61.03515625
4,1734037443415.875,-27.83203125,-66.40625,-78.61328125,-39.0625
5,1734037443419.7812,-7.32421875,-102.05078125,-51.7578125,-54.6875
6,1734037443423.6875,15.13671875,-75.1953125,-53.22265625,48.828125
7,1734037443427.5938,2.9296875,-45.41015625,-76.66015625,72.75390625
8,1734037443431.5,-17.578125,-69.82421875,-75.68359375,-10.7421875
9,1734037443435.4062,-44.921875,-96.6796875,-66.40625,-119.62890625
10,1734037443439.3125,-50.29296875,-69.3359375,-73.2421875,-62.01171875
11,1734037443443.2188,-30.2734375,-46.38671875,-86.42578125,41.015625
0,1734037443447.125,-16.11328125,-67.3828125,-76.171875,18.5546875
1,1734037443451.0312,16.6015625,-112.3046875,-44.43359375,-32.71484375
2,1734037443454.9375,-16.11328125,-73.73046875,-45.8984375,-45.41015625
3,1734037443458.8438,-48.33984375,-15.625,-80.56640625,0.9765625
4,1734037443462.75,0.48828125,-41.9921875,-73.73046875,36.1328125
5,1734037443466.6562,43.9453125,-102.5390625,-28.3203125,9.765625
6,1734037443470.5625,-20.99609375,-69.82421875,-33.203125,-70.3125
7,1734037443474.4688,-78.61328125,-13.18359375,-83.49609375,-57.12890625
8,1734037443478.375,-16.11328125,-66.89453125,-78.125,49.8046875
9,1734037443482.2812,-19.53125,-80.56640625,-62.5,-27.83203125
10,1734037443486.1875,-81.0546875,-49.31640625,-67.3828125,-158.203125
11,1734037443490.0938,-74.70703125,-38.0859375,-68.359375,-53.7109375
0,1734037443494,-13.18359375,-51.26953125,-46.875,74.21875
1,1734037443497.9062,-12.20703125,-60.05859375,-44.43359375,7.8125
2,1734037443501.8125,-65.4296875,-41.50390625,-53.7109375,-128.41796875
3,1734037443505.7188,-54.19921875,-26.85546875,-43.9453125,-63.4765625
4,1734037443509.625,9.765625,-33.69140625,-31.73828125,86.42578125
5,1734037443513.5312,0,-23.92578125,-30.2734375,54.19921875
6,1734037443517.4375,-60.05859375,-19.53125,-37.109375,-101.5625
7,1734037443521.3438,-76.66015625,-10.7421875,-36.1328125,-103.515625
8,1734037443525.25,-12.20703125,-33.69140625,-31.25,64.453125
9,1734037443529.1562,33.203125,-74.21875,-17.08984375,129.39453125
10,1734037443533.0625,-92.28515625,-23.92578125,-44.43359375,-98.14453125
11,1734037443536.9688,-143.06640625,-19.04296875,-63.96484375,-206.54296875
0,1734037443540.875,-72.75390625,-27.83203125,-54.6875,-39.55078125
1,1734037443544.7812,-61.5234375,-6.8359375,-55.6640625,20.01953125
2,1734037443548.6875,-84.9609375,-21.97265625,-45.8984375,-73.2421875
3,1734037443552.5938,-98.14453125,-45.41015625,-37.109375,-151.3671875
4,1734037443556.5,-58.10546875,-38.57421875,-48.33984375,-48.33984375
5,1734037443560.4062,-20.99609375,-26.3671875,-56.640625,51.7578125
6,1734037443564.3125,-34.1796875,-22.94921875,-50.29296875,-7.8125
7,1734037443568.2188,-72.75390625,-34.1796875,-44.43359375,-140.625
8,1734037443572.125,-23.4375,-64.453125,-26.3671875,-35.64453125
9,1734037443576.0312,-31.25,-8.30078125,-43.9453125,39.0625
10,1734037443579.9375,-78.61328125,16.6015625,-73.2421875,-50.29296875
11,1734037443583.8438,-60.05859375,-42.48046875,-52.734375,-109.375
0,1734037443587.75,-79.58984375,-35.15625,-38.57421875,-117.1875
1,1734037443591.6562,-56.640625,0.48828125,-41.9921875,-8.30078125
2,1734037443595.5625,-12.20703125,-4.39453125,-41.9921875,36.1328125
3,1734037443599.4688,-25.87890625,-37.59765625,-35.64453125,-47.36328125
4,1734037443603.375,-58.59375,-29.296875,-31.73828125,-109.375
5,1734037443607.2812,-49.8046875,-3.41796875,-42.96875,-12.20703125
6,1734037443611.1875,-27.34375,-0.48828125,-49.31640625,46.38671875
7,1734037443615.0938,6.8359375,-56.15234375,-32.2265625,10.25390625
8,1734037443619,-30.76171875,-60.546875,-16.11328125,-91.796875
9,1734037443622.9062,-109.86328125,13.18359375,-51.26953125,-115.234375
10,1734037443626.8125,-65.4296875,1.46484375,-64.453125,0.48828125
11,1734037443630.7188,-22.4609375,-23.4375,-36.62109375,7.32421875
0,1734037443634.625,-83.0078125,-5.859375,-39.55078125,-145.5078125
1,1734037443638.5312,-103.02734375,13.671875,-57.12890625,-150.87890625
2,1734037443642.4375,-27.34375,-9.765625,-60.05859375,18.06640625
3,1734037443646.3438,-5.859375,-27.34375,-55.6640625,41.015625
4,1734037443650.25,-47.36328125,-35.64453125,-56.15234375,-98.14453125
5,1734037443654.1562,-51.26953125,-45.41015625,-48.828125,-108.3984375
6,1734037443658.0625,-13.671875,-40.0390625,-41.50390625,33.69140625
7,1734037443661.9688,7.32421875,-35.64453125,-38.0859375,71.2890625
8,1734037443665.875,-54.19921875,0.48828125,-55.6640625,-93.26171875
9,1734037443669.7812,-83.0078125,-5.859375,-68.84765625,-184.5703125
10,1734037443673.6875,-21.484375,-25.87890625,-57.6171875,-17.578125
11,1734037443677.5938,25.390625,-28.80859375,-47.36328125,83.0078125
0,1734037443681.5,-19.04296875,-28.80859375,-49.8046875,-19.53125
1,1734037443685.4062,-85.44921875,-25.87890625,-60.05859375,-166.015625
2,1734037443689.3125,-10.25390625,-45.41015625,-48.33984375,-35.64453125
3,1734037443693.2188,32.71484375,-28.3203125,-38.0859375,95.703125
4,1734037443697.125,-18.06640625,-19.04296875,-49.31640625,1.46484375
5,1734037443701.0312,-32.2265625,-60.05859375,-49.8046875,-100.09765625
6,1734037443704.9375,16.11328125,-69.82421875,-38.0859375,-37.59765625
7,1734037443708.8438,37.109375,-43.45703125,-33.203125,88.8671875
8,1734037443712.75,-36.1328125,1.953125,-58.59375,10.7421875
9,1734037443716.6562,-52.24609375,-29.78515625,-63.96484375,-111.81640625
10,1734037443720.5625,-8.30078125,-67.3828125,-27.34375,-74.21875
11,1734037443724.4688,-4.8828125,-16.6015625,-32.71484375,29.296875
0,1734037443728.375,-23.4375,15.13671875,-66.89453125,20.01953125
1,1734037443732.2812,-5.37109375,-29.78515625,-54.19921875,-36.1328125
2,1734037443736.1875,-26.85546875,-41.015625,-36.62109375,-101.07421875
3,1734037443740.0938,-45.41015625,-8.7890625,-52.24609375,-38.0859375
4,1734037443744,-7.32421875,-24.4140625,-59.08203125,54.6875
5,1734037443747.9062,12.6953125,-66.89453125,-46.875,18.5546875
6,1734037443751.8125,6.8359375,-96.19140625,-28.3203125,-55.6640625
7,1734037443755.7188,-40.0390625,-36.1328125,-44.43359375,-56.15234375
8,1734037443759.625,-39.0625,0,-67.3828125,8.30078125
9,1734037443763.5312,16.6015625,-52.24609375,-44.921875,44.921875
10,1734037443767.4375,-31.25,-69.3359375,-31.25,-68.359375
11,1734037443771.3438,-67.3828125,-35.64453125,-32.71484375,-101.5625
0,1734037443775.25,-29.78515625,-29.296875,-40.52734375,30.76171875
1,1734037443779.1562,5.859375,-48.828125,-34.1796875,83.0078125
2,1734037443783.0625,-14.16015625,-38.0859375,-31.25,-44.43359375
3,1734037443786.9688,-50.29296875,-13.671875,-40.0390625,-126.953125
4,1734037443790.875,-18.5546875,-11.71875,-47.8515625,-0.9765625
5,1734037443794.7812,50.78125,-63.4765625,-37.59765625,121.58203125
6,1734037443798.6875,31.25,-67.87109375,-26.85546875,34.66796875
7,1734037443802.5938,-69.3359375,-16.6015625,-49.31640625,-151.3671875
8,1734037443806.5,-56.640625,-5.859375,-59.5703125,-65.91796875
9,1734037443810.4062,26.3671875,-45.8984375,-41.9921875,105.95703125
10,1734037443814.3125,2.9296875,-53.22265625,-41.015625,34.66796875
11,1734037443818.2188,-115.234375,-8.30078125,-65.91796875,-194.82421875
0,1734037443822.125,-79.58984375,-26.85546875,-59.5703125,-127.44140625
1,1734037443826.0312,-15.13671875,-29.296875,-45.8984375,35.64453125
2,1734037443829.9375,-36.62109375,-23.4375,-41.50390625,1.46484375
3,1734037443833.8438,-75.68359375,-39.0625,-37.109375,-119.140625
4,1734037443837.75,-64.94140625,-55.17578125,-24.4140625,-103.515625
5,1734037443841.6562,2.44140625,-54.19921875,-20.5078125,57.6171875
6,1734037443845.5625,-10.25390625,-45.41015625,-33.69140625,63.4765625
7,1734037443849.4688,-71.77734375,-50.29296875,-42.48046875,-96.6796875
8,1734037443853.375,-87.890625,-65.91796875,-46.875,-152.83203125
9,1734037443857.2812,-51.7578125,-64.453125,-55.17578125,-20.01953125
10,1734037443861.1875,-37.59765625,-47.36328125,-61.03515625,26.3671875
11,1734037443865.0938,-64.94140625,-51.26953125,-57.6171875,-58.59375
0,1734037443869,-57.6171875,-89.84375,-41.9921875,-104.4921875
1,1734037443872.9062,-34.1796875,-80.56640625,-33.203125,-7.8125
2,1734037443876.8125,-80.078125,-19.53125,-58.59375,8.30078125
3,1734037443880.7188,-77.1484375,-51.7578125,-62.5,-32.2265625
4,1734037443884.625,-70.80078125,-95.21484375,-40.0390625,-118.1640625
5,1734037443888.5312,-68.84765625,-78.61328125,-45.8984375,-93.75
6,1734037443892.4375,-48.33984375,-55.6640625,-55.17578125,36.1328125
7,1734037443896.3438,-59.5703125,-51.7578125,-49.8046875,22.4609375
8,1734037443900.25,-46.875,-92.7734375,-41.50390625,-61.5234375
9,1734037443904.1562,-36.62109375,-96.19140625,-26.3671875,-64.453125
10,1734037443908.0625,-103.515625,-5.37109375,-62.5,-43.45703125
11,1734037443911.9688,-83.984375,-20.99609375,-77.1484375,0
0,1734037443915.875,-44.43359375,-70.80078125,-40.0390625,-43.9453125
1,1734037443919.7812,-103.02734375,-53.22265625,-39.0625,-152.34375
2,1734037443923.6875,-96.6796875,-34.1796875,-57.12890625,-67.87109375
3,1734037443927.5938,-27.34375,-37.59765625,-52.734375,40.0390625
4,1734037443931.5,-25.390625,-42.48046875,-42.48046875,-17.08984375
5,1734037443935.4062,-71.77734375,-46.38671875,-39.55078125,-129.8828125
6,1734037443939.3125,-70.3125,-26.3671875,-46.38671875,-69.82421875
7,1734037443943.2188,-31.73828125,-30.76171875,-52.734375,45.8984375
8,1734037443947.125,-8.7890625,-56.640625,-35.15625,46.38671875
9,1734037443951.0312,-89.35546875,-18.5546875,-40.52734375,-135.25390625
10,1734037443954.9375,-110.83984375,0,-59.08203125,-158.203125
11,1734037443958.8438,-31.73828125,-27.83203125,-47.36328125,37.59765625
0,1734037443962.75,-30.76171875,-38.0859375,-40.0390625,54.6875
1,1734037443966.6562,-89.35546875,-24.90234375,-44.43359375,-106.4453125
2,1734037443970.5625,-90.33203125,-34.1796875,-46.875,-152.34375
3,1734037443974.4688,-5.37109375,-47.36328125,-40.0390625,27.83203125
4,1734037443978.375,-8.30078125,-36.62109375,-37.109375,77.1484375
5,1734037443982.2812,-85.44921875,-29.296875,-42.48046875,-75.68359375
6,1734037443986.1875,-90.8203125,-38.57421875,-35.64453125,-149.90234375
7,1734037443990.0938,-46.38671875,-23.92578125,-33.69140625,-30.2734375
8,1734037443994,-44.43359375,-0.9765625,-46.875,32.2265625
9,1734037443997.9062,-94.23828125,0.48828125,-59.5703125,-64.453125
10,1734037444001.8125,-115.72265625,-20.01953125,-54.6875,-167.48046875
11,1734037444005.7188,-32.2265625,-67.3828125,-33.203125,-34.66796875
0,1734037444009.625,-2.44140625,-41.50390625,-33.203125,81.54296875
1,1734037444013.5312,-86.42578125,9.765625,-70.3125,-45.41015625
2,1734037444017.4375,-72.75390625,-45.41015625,-58.10546875,-128.41796875
3,1734037444021.3438,-55.17578125,-44.43359375,-36.62109375,-107.91015625
4,1734037444025.25,-41.9921875,-4.8828125,-54.19921875,-5.37109375
5,1734037444029.1562,-21.484375,-15.625,-49.31640625,26.85546875
6,1734037444033.0625,-42.96875,-47.36328125,-32.71484375,-62.01171875
7,1734037444036.9688,-62.01171875,-52.734375,-27.34375,-108.88671875
8,1734037444040.875,-80.56640625,6.8359375,-52.24609375,-51.26953125
9,1734037444044.7812,-64.94140625,14.6484375,-69.3359375,0
10,1734037444048.6875,-29.296875,-41.50390625,-38.0859375,-22.94921875
11,1734037444052.5938,-65.4296875,-57.12890625,-31.25,-126.953125
0,1734037444056.5,-86.9140625,-24.4140625,-51.26953125,-79.1015625
1,1734037444060.4062,-66.40625,-17.578125,-56.640625,28.80859375
2,1734037444064.3125,-50.78125,-42.48046875,-50.29296875,-4.39453125
3,1734037444068.2188,-81.0546875,-50.29296875,-51.26953125,-139.16015625
4,1734037444072.125,-76.66015625,-39.55078125,-58.59375,-116.2109375
5,1734037444076.0312,-25.87890625,-31.25,-51.7578125,37.59765625
6,1734037444079.9375,17.08984375,-50.29296875,-44.43359375,70.80078125
7,1734037444083.8438,-9.765625,-55.17578125,-41.015625,-46.38671875
8,1734037444087.75,-83.984375,5.859375,-62.5,-140.625
9,1734037444091.6562,-53.7109375,22.4609375,-76.66015625,-29.78515625
10,1734037444095.5625,21.484375,-35.15625,-48.33984375,87.890625
11,1734037444099.4688,-13.671875,-43.45703125,-41.015625,-31.25
0,1734037444103.375,-100.09765625,2.44140625,-68.359375,-175.78125
1,1734037444107.2812,-20.99609375,2.44140625,-60.546875,-10.7421875
2,1734037444111.1875,20.5078125,7.8125,-51.7578125,79.1015625
3,1734037444115.0938,-16.11328125,16.11328125,-50.78125,-24.90234375
4,1734037444119,-46.38671875,2.44140625,-44.43359375,-139.16015625
5,1734037444122.9062,-13.671875,-9.765625,-43.45703125,-42.48046875
6,1734037444126.8125,46.875,-14.16015625,-37.109375,109.375
7,1734037444130.7188,0.48828125,12.6953125,-48.828125,23.4375
8,1734037444134.625,-71.77734375,22.94921875,-75.68359375,-163.0859375
9,1734037444138.5312,-32.71484375,-12.6953125,-68.84765625,-100.09765625
10,1734037444142.4375,14.6484375,-16.6015625,-62.01171875,55.17578125
11,1734037444146.3438,-16.11328125,11.71875,-73.2421875,5.37109375
0,1734037444150.25,-35.64453125,-9.27734375,-62.98828125,-107.421875
1,1734037444154.1562,-24.4140625,-26.85546875,-46.38671875,-102.5390625
2,1734037444158.0625,3.41796875,-0.9765625,-53.22265625,20.01953125
3,1734037444161.9688,-1.46484375,16.11328125,-63.96484375,47.8515625
4,1734037444165.875,-20.01953125,-10.7421875,-54.19921875,-38.0859375
5,1734037444169.7812,-1.953125,-60.546875,-35.64453125,-69.3359375
6,1734037444173.6875,4.8828125,-42.48046875,-43.45703125,12.6953125
7,1734037444177.5938,-0.48828125,-2.44140625,-62.5,59.08203125
8,1734037444181.5,-10.7421875,-4.39453125,-63.96484375,-7.32421875
9,1734037444185.4062,2.44140625,-64.94140625,-45.8984375,-66.89453125
10,1734037444189.3125,18.5546875,-47.36328125,-39.0625,1.953125
11,1734037444193.2188,-43.9453125,32.2265625,-79.58984375,-8.7890625
0,1734037444197.125,-40.52734375,-6.8359375,-79.58984375,-28.80859375
1,1734037444201.0312,-44.43359375,-40.52734375,-53.22265625,-109.86328125
2,1734037444204.9375,-56.640625,-29.296875,-54.6875,-114.74609375
3,1734037444208.8438,-7.8125,-12.20703125,-61.5234375,25.87890625
4,1734037444212.75,28.3203125,-28.80859375,-53.22265625,73.73046875
5,1734037444216.6562,14.16015625,-65.91796875,-38.0859375,-18.5546875
6,1734037444220.5625,-32.71484375,-58.10546875,-41.9921875,-102.5390625
7,1734037444224.4688,-38.0859375,-33.69140625,-63.96484375,-24.90234375
8,1734037444228.375,18.5546875,-48.828125,-58.59375,69.82421875
9,1734037444232.2812,27.83203125,-72.75390625,-35.15625,15.625
10,1734037444236.1875,-60.546875,-46.875,-46.38671875,-132.8125
11,1734037444240.0938,-46.38671875,-20.99609375,-57.12890625,-59.5703125
0,1734037444244,45.8984375,-56.15234375,-43.9453125,101.07421875
1,1734037444247.9062,29.296875,-59.5703125,-39.55078125,42.96875
2,1734037444251.8125,-56.640625,-23.92578125,-49.8046875,-143.06640625
3,1734037444255.7188,-40.0390625,-24.90234375,-49.31640625,-91.30859375
4,1734037444259.625,22.4609375,-30.76171875,-48.33984375,58.59375
5,1734037444263.5312,29.78515625,-41.50390625,-41.50390625,44.921875
6,1734037444267.4375,-10.7421875,-55.6640625,-34.1796875,-92.28515625
7,1734037444271.3438,-17.578125,-37.109375,-35.64453125,-98.14453125
8,1734037444275.25,60.05859375,-35.64453125,-41.015625,80.56640625
9,1734037444279.1562,52.734375,-7.8125,-53.22265625,82.51953125
10,1734037444283.0625,-45.8984375,29.78515625,-70.80078125,-111.81640625
11,1734037444286.9688,-49.8046875,0.9765625,-66.40625,-153.3203125
0,1734037444290.875,46.38671875,-25.390625,-35.15625,57.12890625
1,1734037444294.7812,46.875,-3.41796875,-32.2265625,106.93359375
2,1734037444298.6875,-25.87890625,-0.9765625,-58.10546875,-49.31640625
3,1734037444302.5938,-17.08984375,-41.50390625,-46.875,-115.234375
4,1734037444306.5,8.30078125,-26.85546875,-42.48046875,-28.3203125
5,1734037444310.4062,33.69140625,-18.06640625,-59.5703125,57.12890625
6,1734037444314.3125,6.8359375,-20.01953125,-72.75390625,-10.25390625
7,1734037444318.2188,-24.90234375,-48.33984375,-70.3125,-114.74609375
8,1734037444322.125,-21.484375,-50.78125,-60.546875,-57.6171875
9,1734037444326.0312,-19.53125,-9.765625,-65.91796875,35.15625
10,1734037444329.9375,-0.48828125,-20.5078125,-69.82421875,22.94921875
11,1734037444333.8438,12.6953125,-68.84765625,-55.17578125,-48.33984375
0,1734037444337.75,-1.46484375,-49.31640625,-44.43359375,-63.96484375
1,1734037444341.6562,-18.5546875,19.53125,-56.15234375,4.39453125
2,1734037444345.5625,6.34765625,9.765625,-59.5703125,53.7109375
3,1734037444349.4688,11.23046875,-25.390625,-46.875,-12.6953125
4,1734037444353.375,-38.0859375,-34.1796875,-45.41015625,-101.07421875
5,1734037444357.2812,-15.625,-20.5078125,-52.734375,0.48828125
6,1734037444361.1875,12.6953125,-10.25390625,-57.6171875,73.73046875
7,1734037444365.0938,18.06640625,-58.10546875,-52.734375,24.90234375
8,1734037444369,16.6015625,-97.16796875,-33.203125,-31.25
9,1734037444372.9062,-58.10546875,-18.06640625,-62.01171875,-62.98828125
10,1734037444376.8125,-33.69140625,1.953125,-81.54296875,17.578125
11,1734037444380.7188,-0.9765625,-29.78515625,-60.05859375,26.3671875
0,1734037444384.625,-54.6875,-31.73828125,-58.59375,-116.2109375
1,1734037444388.5312,-60.05859375,-26.85546875,-64.453125,-104.00390625
2,1734037444392.4375,1.46484375,-27.83203125,-58.59375,47.8515625
3,1734037444396.3438,6.34765625,-23.4375,-53.22265625,62.01171875
4,1734037444400.25,-44.43359375,-26.3671875,-58.10546875,-78.61328125
5,1734037444404.1562,-47.8515625,-37.59765625,-48.33984375,-116.2109375
6,1734037444408.0625,-19.53125,-18.5546875,-53.7109375,10.25390625
7,1734037444411.9688,33.203125,-40.52734375,-51.7578125,103.02734375
8,1734037444415.875,-31.73828125,-23.4375,-60.05859375,-52.734375
9,1734037444419.7812,-110.83984375,0,-72.75390625,-197.265625
10,1734037444423.6875,-37.109375,-29.296875,-51.7578125,-25.390625
11,1734037444427.5938,1.46484375,-29.296875,-49.8046875,76.66015625
0,1734037444431.5,-41.9921875,-17.578125,-58.10546875,-27.83203125
1,1734037444435.4062,-76.171875,-35.64453125,-54.6875,-142.08984375
2,1734037444439.3125,-40.52734375,-36.62109375,-48.33984375,-60.546875
3,1734037444443.2188,6.34765625,-17.578125,-52.24609375,65.4296875
4,1734037444447.125,-13.18359375,-4.8828125,-61.5234375,34.1796875
5,1734037444451.0312,-54.6875,-16.6015625,-56.15234375,-100.5859375
6,1734037444454.9375,-18.06640625,-58.59375,-43.45703125,-61.5234375
7,1734037444458.8438,7.32421875,-46.875,-46.875,69.82421875
8,1734037444462.75,-49.31640625,-10.25390625,-70.3125,7.32421875
9,1734037444466.6562,-74.70703125,-43.45703125,-71.2890625,-118.65234375
10,1734037444470.5625,-32.71484375,-99.609375,-36.62109375,-82.51953125
11,1734037444474.4688,-12.20703125,-59.08203125,-34.1796875,33.69140625
0,1734037444478.375,-56.15234375,7.32421875,-72.265625,8.7890625
1,1734037444482.2812,-35.64453125,-37.59765625,-66.89453125,-37.109375
2,1734037444486.1875,-50.78125,-42.96875,-51.26953125,-128.90625
3,1734037444490.0938,-57.12890625,-2.9296875,-59.5703125,-67.3828125
4,1734037444494,-10.25390625,-5.859375,-62.5,48.828125
5,1734037444497.9062,8.7890625,-37.109375,-52.24609375,24.4140625
6,1734037444501.8125,-8.30078125,-56.15234375,-28.80859375,-72.265625
7,1734037444505.7188,-69.82421875,-12.6953125,-48.828125,-98.14453125
8,1734037444509.625,-53.7109375,1.953125,-80.078125,-5.37109375
9,1734037444513.5312,16.6015625,-42.48046875,-61.03515625,43.9453125
10,1734037444517.4375,-15.13671875,-50.78125,-52.734375,-80.56640625
11,1734037444521.3438,-55.17578125,-24.4140625,-58.10546875,-120.60546875
0,1734037444525.25,-9.27734375,-27.83203125,-54.6875,31.25
1,1734037444529.1562,49.31640625,-58.10546875,-40.52734375,99.609375
2,1734037444533.0625,9.765625,-52.24609375,-39.0625,-23.4375
3,1734037444536.9688,-51.7578125,-11.23046875,-56.640625,-132.32421875
4,1734037444540.875,-7.32421875,-13.671875,-63.96484375,5.37109375
5,1734037444544.7812,44.921875,-54.6875,-50.29296875,136.23046875
6,1734037444548.6875,17.578125,-62.98828125,-40.0390625,38.57421875
7,1734037444552.5938,-44.43359375,-45.8984375,-42.96875,-110.83984375
8,1734037444556.5,-36.1328125,-20.99609375,-55.17578125,-45.41015625
9,1734037444560.4062,43.45703125,-48.828125,-53.22265625,115.234375
10,1734037444564.3125,39.0625,-58.59375,-50.29296875,77.63671875
11,1734037444568.2188,-75.1953125,-10.7421875,-69.3359375,-132.8125
0,1734037444572.125,-50.29296875,-26.3671875,-63.96484375,-77.1484375
1,1734037444576.0312,14.6484375,-18.06640625,-62.98828125,65.91796875
2,1734037444579.9375,20.5078125,-21.97265625,-60.05859375,66.40625
3,1734037444583.8438,-15.13671875,-44.921875,-53.7109375,-58.10546875
4,1734037444587.75,-42.96875,-47.8515625,-58.59375,-97.16796875
5,1734037444591.6562,27.83203125,-67.3828125,-46.875,94.7265625
6,1734037444595.5625,5.859375,-40.52734375,-61.03515625,85.9375
7,1734037444599.4688,-72.265625,-19.04296875,-86.42578125,-93.75
8,1734037444603.375,-49.8046875,-44.43359375,-70.3125,-115.72265625
9,1734037444607.2812,-15.13671875,-27.34375,-61.03515625,10.25390625
10,1734037444611.1875,-34.1796875,2.9296875,-74.21875,45.41015625
11,1734037444615.0938,-30.2734375,-29.78515625,-75.1953125,-23.92578125
0,1734037444619,-22.94921875,-57.12890625,-58.10546875,-96.19140625
1,1734037444622.9062,-26.85546875,-22.4609375,-55.6640625,-28.80859375
2,1734037444626.8125,-12.6953125,0.9765625,-68.359375,52.24609375
3,1734037444630.7188,-0.48828125,-20.01953125,-65.91796875,20.01953125
4,1734037444634.625,-13.18359375,-37.109375,-46.38671875,-69.3359375
5,1734037444638.5312,-5.37109375,-22.94921875,-41.015625,-52.734375
