index,unixTimestamp,TP9,AF7,AF8,TP10
0,1734037277087.75,0,0,0,0
1,1734037277091.6562,-0.48828125,-2.44140625,-5.859375,-0.9765625
2,1734037277095.5625,-1.953125,-15.625,29.296875,-0.9765625
3,1734037277099.4688,5.859375,32.2265625,-90.33203125,10.25390625
4,1734037277103.375,-31.73828125,-211.9140625,325.1953125,-47.36328125
5,1734037277107.2812,-44.43359375,-644.53125,412.59765625,23.4375
6,1734037277111.1875,5.859375,-422.8515625,50.78125,173.828125
7,1734037277115.0938,-5.859375,-500.9765625,-8.7890625,112.79296875
8,1734037277119,-68.359375,-1000,-393.5546875,-30.76171875
9,1734037277122.9062,-83.0078125,-740.72265625,-41.9921875,22.4609375
10,1734037277126.8125,-52.734375,-205.078125,251.953125,189.94140625
11,1734037277130.7188,-41.9921875,-461.42578125,10.7421875,205.56640625
0,1734037277134.625,-118.65234375,-909.66796875,-230.95703125,69.3359375
1,1734037277138.5312,-129.8828125,-664.0625,-60.05859375,55.17578125
2,1734037277142.4375,-53.7109375,-279.296875,131.8359375,200.68359375
3,1734037277146.3438,-40.0390625,-404.296875,19.53125,233.88671875
4,1734037277150.25,-75.1953125,-658.69140625,-91.796875,123.53515625
5,1734037277154.1562,-85.44921875,-859.375,-253.41796875,83.0078125
6,1734037277158.0625,-11.71875,-817.3828125,-195.80078125,254.39453125
7,1734037277161.9688,20.01953125,-815.4296875,-289.0625,384.27734375
8,1734037277165.875,2.9296875,-818.84765625,-317.87109375,272.94921875
9,1734037277169.7812,-24.90234375,-559.08203125,-167.96875,115.72265625
10,1734037277173.6875,14.6484375,-321.77734375,-44.921875,224.12109375
11,1734037277177.5938,80.078125,-648.4375,-261.23046875,358.3984375
0,1734037277181.5,68.84765625,-825.1953125,-358.3984375,265.13671875
1,1734037277185.4062,25.390625,-415.0390625,-101.5625,59.5703125
2,1734037277189.3125,74.21875,-510.25390625,-244.62890625,102.05078125
3,1734037277193.2188,141.11328125,-412.59765625,-85.44921875,266.6015625
4,1734037277197.125,123.046875,-96.19140625,51.7578125,228.515625
5,1734037277201.0312,72.265625,-569.3359375,-239.74609375,10.7421875
6,1734037277204.9375,88.8671875,-1000,-481.4453125,-50.29296875
7,1734037277208.8438,137.20703125,-987.3046875,-527.83203125,120.1171875
8,1734037277212.75,100.5859375,-503.41796875,-126.46484375,137.20703125
9,1734037277216.6562,7.8125,-171.38671875,2.44140625,-36.1328125
10,1734037277220.5625,-38.0859375,-804.19921875,-500.9765625,-81.54296875
11,1734037277224.4688,-22.4609375,-843.26171875,-486.81640625,97.16796875
0,1734037277228.375,-10.25390625,-38.0859375,56.15234375,185.546875
1,1734037277232.2812,-33.69140625,109.86328125,54.6875,104.98046875
2,1734037277236.1875,-79.58984375,-590.33203125,-324.21875,12.6953125
3,1734037277240.0938,-67.87109375,-515.625,-157.71484375,121.58203125
4,1734037277244,-32.71484375,97.65625,122.55859375,260.25390625
5,1734037277247.9062,-42.96875,-251.46484375,-142.578125,227.05078125
6,1734037277251.8125,-98.6328125,-886.23046875,-518.5546875,46.38671875
7,1734037277255.7188,-84.9609375,-646.97265625,-286.62109375,17.578125
8,1734037277259.625,-5.37109375,81.0546875,109.86328125,153.3203125
9,1734037277263.5312,16.6015625,183.10546875,37.109375,132.32421875
10,1734037277267.4375,-30.76171875,-571.2890625,-357.421875,-50.29296875
11,1734037277271.3438,-24.90234375,-694.82421875,-342.28515625,-118.1640625
0,1734037277275.25,41.015625,-216.30859375,-65.91796875,20.01953125
1,1734037277279.1562,81.0546875,-276.85546875,-52.734375,95.21484375
2,1734037277283.0625,49.8046875,-593.75,-286.1328125,-23.4375
3,1734037277286.9688,15.625,-698.73046875,-371.09375,-160.15625
4,1734037277290.875,61.5234375,-248.046875,-67.3828125,-10.25390625
5,1734037277294.7812,92.28515625,-204.58984375,-20.99609375,133.7890625
6,1734037277298.6875,47.8515625,-750,-349.609375,22.4609375
7,1734037277302.5938,-21.484375,-1000,-457.03125,-128.41796875
8,1734037277306.5,5.37109375,-455.078125,-85.9375,-40.0390625
9,1734037277310.4062,47.36328125,-172.8515625,-29.78515625,125.9765625
10,1734037277314.3125,30.76171875,-690.4296875,-371.58203125,109.86328125
11,1734037277318.2188,-45.8984375,-437.01171875,-261.71875,-64.94140625
0,1734037277322.125,-48.828125,-118.1640625,-108.88671875,-39.0625
1,1734037277326.0312,-3.41796875,-120.1171875,-17.578125,137.6953125
2,1734037277329.9375,-3.41796875,-161.62109375,-43.9453125,148.4375
3,1734037277333.8438,-44.921875,-349.609375,-207.03125,-21.484375
4,1734037277337.75,-67.87109375,-323.73046875,-233.3984375,-104.00390625
5,1734037277341.6562,2.9296875,-587.890625,-375.48828125,89.35546875
6,1734037277345.5625,32.2265625,-880.37109375,-452.1484375,162.59765625
7,1734037277349.4688,-9.27734375,-331.54296875,-67.3828125,-16.11328125
8,1734037277353.375,-12.20703125,-224.609375,-192.3828125,-116.69921875
9,1734037277357.2812,60.05859375,-605.46875,-367.1875,5.859375
10,1734037277361.1875,83.984375,-232.91015625,-13.671875,45.8984375
11,1734037277365.0938,62.5,225.09765625,98.14453125,-5.859375
0,1734037277369,27.34375,-313.4765625,-276.85546875,-82.03125
1,1734037277372.9062,45.8984375,-517.578125,-257.8125,6.8359375
2,1734037277376.8125,110.3515625,0,64.94140625,197.75390625
3,1734037277380.7188,105.95703125,258.30078125,104.4921875,176.7578125
4,1734037277384.625,59.5703125,-310.546875,-217.28515625,38.0859375
5,1734037277388.5312,71.2890625,-864.2578125,-464.84375,71.77734375
6,1734037277392.4375,105.46875,-506.8359375,-226.5625,203.61328125
7,1734037277396.3438,91.30859375,-257.32421875,-41.015625,205.078125
8,1734037277400.25,47.36328125,-598.6328125,-329.1015625,57.6171875
9,1734037277404.1562,44.921875,-1000,-815.4296875,-32.71484375
10,1734037277408.0625,66.40625,-678.7109375,-370.1171875,19.53125
11,1734037277411.9688,62.5,229.98046875,178.22265625,34.66796875
0,1734037277415.875,34.1796875,-118.65234375,-97.16796875,-56.15234375
1,1734037277419.7812,-12.20703125,-559.08203125,-319.3359375,-176.26953125
2,1734037277423.6875,17.08984375,-75.1953125,-68.359375,-55.17578125
3,1734037277427.5938,48.828125,330.078125,166.9921875,84.47265625
4,1734037277431.5,32.2265625,-53.22265625,-83.984375,-6.34765625
5,1734037277435.4062,10.25390625,-813.4765625,-442.87109375,-165.52734375
6,1734037277439.3125,47.8515625,-763.18359375,-329.58984375,-103.02734375
7,1734037277443.2188,92.7734375,-179.19921875,18.5546875,48.828125
8,1734037277447.125,70.3125,-512.20703125,-266.6015625,53.22265625
9,1734037277451.0312,18.5546875,-961.42578125,-601.07421875,-117.67578125
10,1734037277454.9375,-3.90625,-336.42578125,-187.98828125,-161.1328125
11,1734037277458.8438,67.87109375,5.37109375,-21.97265625,29.78515625
0,1734037277462.75,83.49609375,-121.58203125,-2.44140625,63.96484375
1,1734037277466.6562,4.8828125,-167.96875,-59.5703125,-78.125
2,1734037277470.5625,-16.6015625,-259.765625,-230.95703125,-151.3671875
3,1734037277474.4688,44.921875,-203.125,-116.69921875,12.6953125
4,1734037277478.375,74.70703125,-192.87109375,-44.921875,90.8203125
5,1734037277482.2812,33.203125,-423.33984375,-234.375,-61.03515625
6,1734037277486.1875,-17.08984375,-792.96875,-413.57421875,-171.875
7,1734037277490.0938,37.109375,-831.54296875,-377.9296875,-2.44140625
8,1734037277494,82.51953125,-984.375,-583.49609375,152.34375
9,1734037277497.9062,56.640625,-818.359375,-472.16796875,79.58984375
10,1734037277501.8125,17.578125,-610.83984375,-295.8984375,-35.15625
11,1734037277505.7188,38.57421875,-938.96484375,-478.515625,20.99609375
0,1734037277509.625,92.28515625,-571.2890625,-251.46484375,138.671875
1,1734037277513.5312,91.796875,163.0859375,134.765625,110.83984375
2,1734037277517.4375,38.0859375,-75.1953125,-136.23046875,-49.31640625
3,1734037277521.3438,26.3671875,-614.74609375,-385.7421875,-98.14453125
4,1734037277525.25,93.75,-301.26953125,-64.453125,42.48046875
5,1734037277529.1562,106.93359375,-85.9375,14.16015625,98.14453125
6,1734037277533.0625,51.7578125,-565.91796875,-279.78515625,-39.0625
7,1734037277536.9688,16.6015625,-1000,-627.44140625,-123.046875
8,1734037277540.875,43.9453125,-682.12890625,-384.27734375,27.34375
9,1734037277544.7812,62.98828125,121.09375,142.08984375,130.859375
10,1734037277548.6875,37.59765625,12.20703125,-53.22265625,55.17578125
11,1734037277552.5938,1.46484375,-587.40234375,-347.16796875,-68.359375
0,1734037277556.5,37.59765625,-590.8203125,-310.05859375,38.0859375
1,1734037277560.4062,68.84765625,-147.4609375,-43.9453125,187.5
2,1734037277564.3125,44.43359375,-43.9453125,-6.8359375,160.64453125
3,1734037277568.2188,-24.90234375,-665.0390625,-373.046875,-28.3203125
4,1734037277572.125,-45.41015625,-640.13671875,-336.42578125,-43.9453125
5,1734037277576.0312,7.8125,-310.05859375,-185.05859375,155.2734375
6,1734037277579.9375,36.62109375,-484.375,-273.4375,129.39453125
7,1734037277583.8438,10.25390625,-972.65625,-723.6328125,-31.73828125
8,1734037277587.75,-14.6484375,-836.9140625,-608.3984375,-55.17578125
9,1734037277591.6562,24.4140625,-19.04296875,18.5546875,83.0078125
10,1734037277595.5625,38.57421875,-82.03125,-56.640625,119.62890625
11,1734037277599.4688,-2.9296875,-488.76953125,-348.14453125,-20.01953125
0,1734037277603.375,-36.62109375,-364.2578125,-322.75390625,-133.30078125
1,1734037277607.2812,-3.41796875,-93.26171875,-85.44921875,-57.12890625
2,1734037277611.1875,25.87890625,-158.69140625,-61.5234375,64.94140625
3,1734037277615.0938,3.41796875,-513.671875,-293.9453125,18.5546875
4,1734037277619,-51.7578125,-565.91796875,-363.28125,-153.3203125
5,1734037277622.9062,-25.390625,-596.6796875,-325.1953125,-83.0078125
6,1734037277626.8125,37.59765625,-796.38671875,-434.5703125,89.84375
7,1734037277630.7188,21.484375,-857.91015625,-502.9296875,15.625
8,1734037277634.625,-39.55078125,-457.51953125,-269.53125,-149.90234375
9,1734037277638.5312,-24.90234375,-347.65625,-277.34375,-132.32421875
10,1734037277642.4375,41.015625,-378.41796875,-244.140625,14.6484375
11,1734037277646.3438,48.33984375,-132.8125,-40.0390625,94.7265625
0,1734037277650.25,4.39453125,-137.6953125,-117.1875,35.64453125
1,1734037277654.1562,-8.7890625,-560.546875,-397.4609375,-0.9765625
2,1734037277658.0625,32.2265625,-556.15234375,-231.4453125,20.5078125
3,1734037277661.9688,44.921875,-43.9453125,75.1953125,59.5703125
4,1734037277665.875,10.25390625,-146.484375,-127.44140625,-16.11328125
5,1734037277669.7812,-20.99609375,-863.76953125,-562.5,-240.72265625
6,1734037277673.6875,28.80859375,-977.05078125,-521.97265625,-107.421875
7,1734037277677.5938,64.94140625,-584.47265625,-245.60546875,113.28125
8,1734037277681.5,14.6484375,-549.8046875,-252.9296875,59.08203125
9,1734037277685.4062,-42.48046875,-891.6015625,-577.1484375,-95.703125
10,1734037277689.3125,-22.4609375,-1000,-697.75390625,37.109375
11,1734037277693.2188,10.25390625,-440.4296875,-147.94921875,204.58984375
0,1734037277697.125,1.46484375,106.4453125,68.359375,60.546875
1,1734037277701.0312,-37.59765625,-480.95703125,-294.921875,-81.54296875
2,1734037277704.9375,-26.3671875,-708.984375,-366.2109375,-37.109375
3,1734037277708.8438,46.38671875,-239.74609375,-181.15234375,13.18359375
4,1734037277712.75,83.0078125,-44.921875,-62.01171875,-57.6171875
5,1734037277716.6562,69.82421875,-517.08984375,-341.30859375,-174.31640625
6,1734037277720.5625,65.4296875,-1000,-573.2421875,-253.90625
7,1734037277724.4688,126.953125,-663.57421875,-329.1015625,-180.17578125
8,1734037277728.375,163.0859375,-350.5859375,-212.40234375,-114.2578125
9,1734037277732.2812,145.01953125,-746.09375,-545.41015625,-227.05078125
10,1734037277736.1875,106.93359375,-941.89453125,-653.80859375,-384.27734375
11,1734037277740.0938,125.48828125,-403.80859375,-258.7890625,-257.8125
0,1734037277744,173.828125,-134.27734375,-152.83203125,-74.70703125
1,1734037277747.9062,151.3671875,-400.87890625,-260.7421875,-100.09765625
2,1734037277751.8125,90.8203125,-624.51171875,-397.4609375,-207.51953125
3,1734037277755.7188,96.6796875,-452.1484375,-298.828125,-143.06640625
4,1734037277759.625,132.8125,-327.63671875,-258.30078125,63.4765625
5,1734037277763.5312,113.28125,-771.484375,-434.5703125,103.02734375
6,1734037277767.4375,39.0625,-952.1484375,-499.51171875,-28.3203125
7,1734037277771.3438,9.27734375,-942.87109375,-447.265625,-47.8515625
8,1734037277775.25,47.36328125,-889.6484375,-443.84765625,132.8125
9,1734037277779.1562,44.921875,-926.26953125,-602.05078125,224.12109375
10,1734037277783.0625,-22.4609375,-974.12109375,-489.74609375,83.984375
11,1734037277786.9688,-72.75390625,-720.21484375,-353.02734375,-20.01953125
0,1734037277790.875,-27.34375,-690.91796875,-409.66796875,138.671875
1,1734037277794.7812,-13.671875,-633.7890625,-331.0546875,263.671875
2,1734037277798.6875,-53.22265625,-229.00390625,-149.4140625,170.41015625
3,1734037277802.5938,-85.9375,-482.91015625,-379.39453125,44.43359375
4,1734037277806.5,-65.91796875,-725.5859375,-409.66796875,142.578125
5,1734037277810.4062,-17.08984375,-652.34375,-312.98828125,276.3671875
6,1734037277814.3125,-22.4609375,-583.0078125,-305.6640625,227.5390625
7,1734037277818.2188,-58.59375,-664.55078125,-367.67578125,73.2421875
8,1734037277822.125,-9.27734375,-930.17578125,-624.0234375,102.05078125
9,1734037277826.0312,61.5234375,-745.1171875,-436.03515625,262.6953125
10,1734037277829.9375,60.05859375,-25.87890625,55.6640625,238.76953125
11,1734037277833.8438,33.69140625,-271.97265625,-246.09375,71.77734375
0,1734037277837.75,32.2265625,-888.671875,-516.6015625,25.390625
1,1734037277841.6562,82.51953125,-645.99609375,-285.64453125,182.12890625
2,1734037277845.5625,111.328125,-15.13671875,18.5546875,229.98046875
3,1734037277849.4688,79.1015625,-237.79296875,-184.08203125,83.984375
4,1734037277853.375,61.5234375,-872.0703125,-537.59765625,13.18359375
5,1734037277857.2812,100.5859375,-809.08203125,-380.859375,158.69140625
6,1734037277861.1875,121.58203125,-521.97265625,-249.51171875,236.81640625
7,1734037277865.0938,110.83984375,-642.08984375,-401.3671875,174.31640625
8,1734037277869,73.73046875,-1000,-808.10546875,54.19921875
9,1734037277872.9062,64.94140625,-783.203125,-534.1796875,92.7734375
10,1734037277876.8125,94.23828125,10.7421875,38.0859375,208.49609375
11,1734037277880.7188,90.8203125,-166.50390625,-113.76953125,190.91796875
0,1734037277884.625,39.0625,-704.58984375,-400.87890625,13.18359375
1,1734037277888.5312,41.9921875,-477.05078125,-332.51953125,-23.92578125
2,1734037277892.4375,94.23828125,-43.9453125,-84.9609375,124.0234375
3,1734037277896.3438,88.37890625,-367.67578125,-126.46484375,136.23046875
4,1734037277900.25,24.4140625,-736.81640625,-377.9296875,-25.87890625
5,1734037277904.1562,-8.30078125,-805.6640625,-468.26171875,-95.703125
6,1734037277908.0625,15.13671875,-768.06640625,-324.70703125,68.84765625
7,1734037277911.9688,33.203125,-800.78125,-473.6328125,204.58984375
8,1734037277915.875,-24.4140625,-848.14453125,-574.70703125,121.58203125
9,1734037277919.7812,-85.9375,-668.9453125,-350.09765625,9.765625
10,1734037277923.6875,-46.38671875,-537.109375,-280.2734375,162.59765625
11,1734037277927.5938,-12.20703125,-336.42578125,-191.89453125,306.640625
0,1734037277931.5,-29.296875,-268.06640625,-191.40625,236.81640625
1,1734037277935.4062,-73.73046875,-402.34375,-337.890625,56.640625
2,1734037277939.3125,-51.26953125,-606.93359375,-386.71875,106.4453125
3,1734037277943.2188,20.01953125,-446.77734375,-207.51953125,259.27734375
4,1734037277947.125,33.203125,-164.55078125,-61.5234375,216.30859375
5,1734037277951.0312,-2.44140625,-630.37109375,-354.00390625,63.4765625
6,1734037277954.9375,15.625,-1000,-556.15234375,71.77734375
7,1734037277958.8438,98.6328125,-942.3828125,-533.203125,245.60546875
8,1734037277962.75,106.93359375,-733.3984375,-330.56640625,244.62890625
9,1734037277966.6562,57.12890625,-511.23046875,-277.83203125,80.078125
10,1734037277970.5625,63.4765625,-743.1640625,-498.53515625,20.99609375
11,1734037277974.4688,115.234375,-830.56640625,-526.3671875,164.55078125
0,1734037277978.375,133.30078125,-93.75,-7.8125,239.2578125
1,1734037277982.2812,99.12109375,100.5859375,18.5546875,143.06640625
2,1734037277986.1875,45.8984375,-594.7265625,-364.74609375,26.3671875
3,1734037277990.0938,64.94140625,-492.67578125,-175.29296875,125
4,1734037277994,96.19140625,114.2578125,73.2421875,251.46484375
5,1734037277997.9062,60.546875,-245.1171875,-162.109375,190.91796875
6,1734037278001.8125,-0.48828125,-884.27734375,-610.83984375,23.92578125
7,1734037278005.7188,-1.953125,-799.31640625,-550.29296875,30.76171875
8,1734037278009.625,28.3203125,-308.59375,-133.30078125,148.4375
9,1734037278013.5312,18.5546875,-40.0390625,-53.7109375,129.8828125
10,1734037278017.4375,-28.80859375,-534.1796875,-335.44921875,-40.0390625
11,1734037278021.3438,-35.64453125,-712.890625,-394.04296875,-108.88671875
0,1734037278025.25,19.53125,-45.41015625,-54.19921875,38.0859375
1,1734037278029.1562,43.45703125,42.48046875,-0.48828125,92.7734375
2,1734037278033.0625,3.41796875,-461.42578125,-296.38671875,-77.1484375
3,1734037278036.9688,-26.3671875,-587.890625,-383.30078125,-201.171875
4,1734037278040.875,35.15625,-311.5234375,-225.09765625,-54.6875
5,1734037278044.7812,83.0078125,-499.51171875,-335.44921875,61.03515625
6,1734037278048.6875,53.22265625,-895.5078125,-536.1328125,-35.64453125
7,1734037278052.5938,6.34765625,-1000,-547.8515625,-202.1484375
8,1734037278056.5,42.48046875,-689.94140625,-333.0078125,-119.140625
9,1734037278060.4062,96.6796875,-483.3984375,-347.16796875,45.8984375
10,1734037278064.3125,82.03125,-970.703125,-680.6640625,10.7421875
11,1734037278068.2188,7.8125,-1000,-545.8984375,-186.5234375
0,1734037278072.125,12.6953125,-595.21484375,-336.42578125,-183.10546875
1,1734037278076.0312,94.7265625,-648.4375,-425.29296875,20.99609375
2,1734037278079.9375,83.0078125,-796.38671875,-486.81640625,39.0625
3,1734037278083.8438,12.20703125,-621.09375,-404.78515625,-129.39453125
4,1734037278087.75,4.8828125,-738.28125,-476.07421875,-168.45703125
5,1734037278091.6562,52.24609375,-828.61328125,-459.9609375,6.8359375
6,1734037278095.5625,66.40625,-867.67578125,-421.875,99.609375
7,1734037278099.4688,16.11328125,-819.3359375,-449.70703125,-22.4609375
8,1734037278103.375,-10.25390625,-878.41796875,-533.69140625,-110.83984375
9,1734037278107.2812,30.2734375,-948.2421875,-510.7421875,43.45703125
10,1734037278111.1875,52.734375,-509.27734375,-265.13671875,143.5546875
11,1734037278115.0938,42.48046875,-265.625,-270.5078125,62.01171875
0,1734037278119,3.41796875,-738.28125,-505.37109375,-83.0078125
1,1734037278122.9062,35.64453125,-1000,-586.9140625,-10.7421875
2,1734037278126.8125,88.8671875,-566.89453125,-317.3828125,136.23046875
3,1734037278130.7188,51.26953125,-298.828125,-229.4921875,83.984375
4,1734037278134.625,-2.44140625,-746.58203125,-489.74609375,-49.31640625
5,1734037278138.5312,18.06640625,-992.67578125,-572.265625,-20.01953125
6,1734037278142.4375,51.26953125,-762.6953125,-375,107.421875
7,1734037278146.3438,44.921875,-580.56640625,-269.53125,114.74609375
8,1734037278150.25,0,-794.43359375,-500.9765625,-16.6015625
9,1734037278154.1562,-12.20703125,-1000,-757.8125,-62.01171875
10,1734037278158.0625,44.921875,-557.12890625,-266.6015625,71.2890625
11,1734037278161.9688,70.3125,230.95703125,138.671875,146.97265625
0,1734037278165.875,30.76171875,-270.01953125,-208.984375,77.63671875
1,1734037278169.7812,-9.765625,-806.15234375,-435.546875,-5.859375
2,1734037278173.6875,33.203125,-156.25,-62.01171875,86.9140625
3,1734037278177.5938,90.8203125,108.3984375,103.515625,212.890625
4,1734037278181.5,70.3125,-490.234375,-222.16796875,189.94140625
5,1734037278185.4062,-3.90625,-988.76953125,-457.51953125,49.31640625
6,1734037278189.3125,9.765625,-680.6640625,-265.13671875,79.1015625
7,1734037278193.2188,45.41015625,131.34765625,105.95703125,216.30859375
8,1734037278197.125,51.7578125,-257.8125,-150.87890625,231.93359375
9,1734037278201.0312,6.34765625,-831.54296875,-473.6328125,93.75
10,1734037278204.9375,-10.7421875,-95.703125,-28.80859375,59.5703125
11,1734037278208.8438,64.453125,251.46484375,119.62890625,219.7265625
0,1734037278212.75,80.56640625,170.41015625,84.9609375,267.08984375
1,1734037278216.6562,21.484375,112.3046875,66.89453125,134.27734375
2,1734037278220.5625,1.953125,63.4765625,29.78515625,46.38671875
3,1734037278224.4688,52.24609375,163.57421875,112.79296875,192.3828125
4,1734037278228.375,69.82421875,142.578125,112.3046875,260.7421875
5,1734037278232.2812,20.5078125,-144.04296875,-1.46484375,141.11328125
6,1734037278236.1875,-5.859375,-469.23828125,-198.73046875,54.6875
7,1734037278240.0938,38.0859375,-382.8125,-94.23828125,174.31640625
8,1734037278244,81.54296875,-786.62109375,-321.77734375,343.75
9,1734037278247.9062,42.48046875,-795.41015625,-291.015625,289.55078125
10,1734037278251.8125,-25.390625,31.25,157.71484375,122.55859375
11,1734037278255.7188,-3.41796875,77.63671875,63.4765625,175.78125
0,1734037278259.625,55.6640625,344.23828125,161.62109375,342.28515625
1,1734037278263.5312,62.98828125,858.88671875,305.17578125,365.72265625
2,1734037278267.4375,15.625,587.890625,177.24609375,251.46484375
3,1734037278271.3438,3.41796875,46.875,117.1875,218.26171875
4,1734037278275.25,56.15234375,360.3515625,249.51171875,339.84375
5,1734037278279.1562,73.2421875,606.93359375,255.859375,405.2734375
6,1734037278283.0625,15.13671875,233.3984375,178.7109375,316.89453125
7,1734037278286.9688,-23.92578125,-535.15625,-187.98828125,236.81640625
8,1734037278290.875,20.5078125,-671.38671875,-180.6640625,323.2421875
9,1734037278294.7812,49.8046875,586.42578125,350.09765625,380.859375
10,1734037278298.6875,15.625,922.8515625,285.64453125,305.6640625
11,1734037278302.5938,-33.203125,31.25,-21.484375,180.6640625
0,1734037278306.5,-0.48828125,175.29296875,153.3203125,220.703125
1,1734037278310.4062,59.08203125,988.28125,406.25,318.84765625
2,1734037278314.3125,50.78125,837.890625,274.90234375,273.4375
3,1734037278318.2188,8.30078125,339.84375,171.875,118.65234375
4,1734037278322.125,37.59765625,425.78125,234.375,121.09375
5,1734037278326.0312,85.44921875,677.24609375,323.73046875,269.53125
6,1734037278329.9375,76.171875,599.12109375,271.97265625,296.875
7,1734037278333.8438,16.6015625,-419.921875,-102.5390625,202.63671875
8,1734037278337.75,-13.18359375,-310.546875,61.5234375,183.59375
9,1734037278341.6562,47.8515625,815.4296875,414.55078125,324.21875
10,1734037278345.5625,74.70703125,538.57421875,176.7578125,387.20703125
11,1734037278349.4688,6.34765625,105.46875,112.3046875,285.15625
0,1734037278353.375,-45.8984375,505.859375,287.109375,186.03515625
1,1734037278357.2812,-3.41796875,978.515625,402.34375,265.625
2,1734037278361.1875,33.203125,560.546875,215.8203125,328.61328125
3,1734037278365.0938,-8.7890625,364.2578125,154.296875,258.30078125
4,1734037278369,-58.10546875,677.24609375,290.0390625,166.50390625
5,1734037278372.9062,-8.7890625,568.359375,287.59765625,269.53125
6,1734037278376.8125,45.41015625,88.37890625,138.671875,447.75390625
7,1734037278380.7188,31.73828125,-208.0078125,93.75,419.43359375
8,1734037278384.625,-24.90234375,535.64453125,323.73046875,171.875
9,1734037278388.5312,-8.30078125,745.1171875,275.87890625,77.63671875
10,1734037278392.4375,88.8671875,763.18359375,337.890625,161.1328125
11,1734037278396.3438,105.46875,935.05859375,386.71875,76.66015625
0,1734037278400.25,47.8515625,875,299.8046875,-121.58203125
1,1734037278404.1562,42.96875,391.6015625,183.10546875,-169.921875
2,1734037278408.0625,107.421875,165.0390625,243.65234375,-38.57421875
3,1734037278411.9688,132.32421875,727.05078125,379.8828125,40.0390625
4,1734037278415.875,83.49609375,903.3203125,275.390625,-17.08984375
5,1734037278419.7812,36.62109375,167.96875,100.09765625,-91.796875
6,1734037278423.6875,83.49609375,-522.4609375,-4.8828125,-37.109375
7,1734037278427.5938,115.234375,-114.2578125,141.11328125,13.671875
8,1734037278431.5,58.10546875,653.3203125,334.9609375,-23.92578125
9,1734037278435.4062,-15.13671875,200.1953125,42.96875,-93.75
10,1734037278439.3125,-12.20703125,-333.49609375,-55.6640625,-63.96484375
11,1734037278443.2188,21.97265625,580.078125,340.33203125,6.8359375
0,1734037278447.125,14.16015625,999.51171875,360.3515625,33.203125
1,1734037278451.0312,-48.828125,338.37890625,90.8203125,4.39453125
2,1734037278454.9375,-49.31640625,84.47265625,92.28515625,-3.41796875
3,1734037278458.8438,18.06640625,423.828125,227.5390625,108.3984375
4,1734037278462.75,31.25,555.6640625,276.3671875,169.921875
5,1734037278466.6562,-18.06640625,-137.6953125,-105.95703125,121.09375
6,1734037278470.5625,-53.22265625,-865.234375,-336.42578125,81.54296875
7,1734037278474.4688,8.30078125,149.90234375,231.4453125,168.45703125
8,1734037278478.375,51.26953125,779.78515625,307.12890625,262.20703125
9,1734037278482.2812,18.5546875,305.6640625,169.921875,200.1953125
10,1734037278486.1875,-29.296875,41.9921875,130.859375,105.95703125
11,1734037278490.0938,28.80859375,475.09765625,248.53515625,170.41015625
0,1734037278494,83.0078125,577.1484375,211.42578125,267.578125
1,1734037278497.9062,40.0390625,246.58203125,114.74609375,244.62890625
2,1734037278501.8125,0,104.00390625,108.88671875,140.13671875
3,1734037278505.7188,31.25,256.8359375,155.76171875,142.08984375
4,1734037278509.625,94.7265625,387.6953125,189.94140625,229.4921875
5,1734037278513.5312,84.9609375,-99.609375,58.10546875,234.86328125
6,1734037278517.4375,13.671875,-455.078125,-62.5,127.9296875
7,1734037278521.3438,3.90625,-425.78125,-35.64453125,55.17578125
8,1734037278525.25,60.546875,-255.859375,63.96484375,131.8359375
9,1734037278529.1562,89.35546875,-791.9921875,-373.046875,182.12890625
10,1734037278533.0625,20.99609375,-798.33984375,-350.5859375,62.01171875
11,1734037278536.9688,-25.87890625,75.1953125,177.734375,-16.11328125
0,1734037278540.875,48.33984375,-81.54296875,-20.99609375,126.953125
1,1734037278544.7812,86.9140625,-97.16796875,-31.25,215.8203125
2,1734037278548.6875,37.59765625,383.30078125,202.1484375,148.4375
3,1734037278552.5938,-10.7421875,-117.1875,-74.21875,75.68359375
4,1734037278556.5,38.0859375,-488.76953125,-180.17578125,107.421875
5,1734037278560.4062,86.42578125,-270.99609375,7.32421875,126.953125
6,1734037278564.3125,81.0546875,-162.109375,62.98828125,35.64453125
7,1734037278568.2188,19.04296875,-183.10546875,-5.37109375,-129.8828125
8,1734037278572.125,26.3671875,-644.04296875,-251.46484375,-118.1640625
9,1734037278576.0312,108.3984375,-450.1953125,-79.1015625,9.27734375
10,1734037278579.9375,78.125,301.26953125,185.05859375,15.13671875
11,1734037278583.8438,-23.4375,27.34375,19.04296875,-40.0390625
0,1734037278587.75,-36.62109375,-815.4296875,-481.4453125,-34.1796875
1,1734037278591.6562,20.01953125,-698.2421875,-348.6328125,53.22265625
2,1734037278595.5625,33.69140625,178.22265625,195.3125,74.70703125
3,1734037278599.4688,-22.94921875,-122.55859375,-100.5859375,28.3203125
4,1734037278603.375,-87.890625,-744.62890625,-418.9453125,35.15625
5,1734037278607.2812,-43.9453125,-674.31640625,-309.5703125,57.6171875
6,1734037278611.1875,-2.44140625,-465.8203125,-127.44140625,-4.8828125
7,1734037278615.0938,-38.57421875,-646.97265625,-297.36328125,-104.00390625
8,1734037278619,-78.61328125,-1000,-779.296875,-196.2890625
9,1734037278622.9062,-22.4609375,-791.9921875,-530.2734375,-234.375
10,1734037278626.8125,39.0625,-104.00390625,66.89453125,-234.375
11,1734037278630.7188,41.9921875,-457.51953125,-247.0703125,-192.3828125
0,1734037278634.625,4.39453125,-962.40234375,-598.6328125,-229.00390625
1,1734037278638.5312,20.5078125,-572.75390625,-310.05859375,-222.65625
2,1734037278642.4375,123.53515625,-182.12890625,-101.5625,-84.9609375
3,1734037278646.3438,145.5078125,-369.62890625,-147.94921875,-43.9453125
4,1734037278650.25,91.30859375,-717.7734375,-388.671875,-106.4453125
5,1734037278654.1562,91.30859375,-925.78125,-489.74609375,-105.95703125
6,1734037278658.0625,158.69140625,-899.4140625,-386.71875,-11.71875
7,1734037278661.9688,176.7578125,-779.296875,-353.02734375,57.12890625
8,1734037278665.875,112.79296875,-683.10546875,-355.95703125,50.78125
9,1734037278669.7812,60.05859375,-632.32421875,-371.58203125,7.32421875
10,1734037278673.6875,118.1640625,-479.98046875,-285.15625,72.75390625
11,1734037278677.5938,147.94921875,-707.03125,-449.70703125,188.4765625
0,1734037278681.5,64.453125,-790.0390625,-461.42578125,170.41015625
1,1734037278685.4062,-24.90234375,-732.91015625,-402.83203125,65.4296875
2,1734037278689.3125,-3.41796875,-956.54296875,-469.7265625,89.84375
3,1734037278693.2188,48.33984375,-852.05078125,-386.23046875,150.390625
4,1734037278697.125,23.92578125,-504.8828125,-258.30078125,100.5859375
5,1734037278701.0312,-56.15234375,-672.36328125,-402.34375,18.5546875
6,1734037278704.9375,-58.10546875,-1000,-543.9453125,28.3203125
7,1734037278708.8438,-0.48828125,-875.48828125,-448.73046875,106.4453125
8,1734037278712.75,-3.90625,-448.2421875,-168.9453125,115.72265625
9,1734037278716.6562,-55.6640625,-221.19140625,-123.53515625,4.8828125
10,1734037278720.5625,-84.9609375,-725.5859375,-517.08984375,-83.984375
11,1734037278724.4688,-6.8359375,-768.06640625,-440.91796875,-8.30078125
0,1734037278728.375,41.9921875,-86.9140625,40.0390625,46.38671875
1,1734037278732.2812,-10.7421875,-41.015625,-50.78125,-27.34375
2,1734037278736.1875,-55.6640625,-674.31640625,-523.92578125,-83.49609375
3,1734037278740.0938,-8.7890625,-959.47265625,-630.37109375,-56.640625
4,1734037278744,51.7578125,-529.78515625,-264.6484375,-29.78515625
5,1734037278747.9062,28.80859375,-506.8359375,-286.62109375,-25.87890625
6,1734037278751.8125,-35.64453125,-934.08203125,-544.43359375,-76.66015625
7,1734037278755.7188,-7.8125,-700.1953125,-405.76171875,-61.03515625
8,1734037278759.625,50.78125,-22.4609375,-8.7890625,22.94921875
9,1734037278763.5312,41.9921875,-57.6171875,-62.98828125,16.11328125
10,1734037278767.4375,-28.80859375,-770.99609375,-600.5859375,-59.5703125
11,1734037278771.3438,-37.109375,-869.62890625,-613.28125,-85.9375
0,1734037278775.25,28.80859375,-205.56640625,-102.05078125,-30.76171875
1,1734037278779.1562,40.52734375,-52.734375,-60.05859375,18.5546875
2,1734037278783.0625,-21.484375,-693.84765625,-455.078125,-26.3671875
3,1734037278786.9688,-87.890625,-836.42578125,-458.984375,-86.42578125
4,1734037278790.875,-22.4609375,-365.72265625,-257.8125,-23.92578125
5,1734037278794.7812,32.71484375,-562.01171875,-391.6015625,40.52734375
6,1734037278798.6875,-23.4375,-967.7734375,-587.40234375,-24.4140625
7,1734037278802.5938,-81.0546875,-1000,-559.08203125,-136.23046875
8,1734037278806.5,-33.69140625,-882.32421875,-421.875,-97.65625
9,1734037278810.4062,26.3671875,-840.33203125,-477.5390625,-3.90625
10,1734037278814.3125,-7.32421875,-820.80078125,-537.59765625,-66.40625
11,1734037278818.2188,-85.44921875,-771.484375,-455.078125,-174.8046875
0,1734037278822.125,-59.08203125,-708.49609375,-386.23046875,-133.7890625
1,1734037278826.0312,21.97265625,-738.28125,-479.98046875,-39.55078125
2,1734037278829.9375,24.4140625,-881.8359375,-612.3046875,-32.71484375
3,1734037278833.8438,-61.03515625,-829.1015625,-500.9765625,-141.6015625
4,1734037278837.75,-75.1953125,-979.98046875,-524.4140625,-219.7265625
5,1734037278841.6562,17.08984375,-1000,-670.41015625,-119.62890625
6,1734037278845.5625,51.26953125,-995.60546875,-785.15625,-38.0859375
7,1734037278849.4688,-12.6953125,-978.02734375,-590.8203125,-132.8125
8,1734037278853.375,-66.40625,-1000,-636.23046875,-258.30078125
9,1734037278857.2812,-8.30078125,-1000,-645.01953125,-58.59375
10,1734037278861.1875,21.484375,-827.63671875,-470.703125,198.73046875
11,1734037278865.0938,-37.109375,-848.14453125,-503.90625,57.6171875
0,1734037278869,-88.37890625,-1000,-672.8515625,-74.70703125
1,1734037278872.9062,-43.9453125,-995.1171875,-657.2265625,0
2,1734037278876.8125,21.97265625,-902.34375,-503.41796875,28.80859375
3,1734037278880.7188,3.41796875,-912.109375,-512.6953125,-9.765625
4,1734037278884.625,-57.6171875,-1000,-706.54296875,-43.9453125
5,1734037278888.5312,-36.62109375,-1000,-775.87890625,-55.17578125
6,1734037278892.4375,43.45703125,-996.09375,-620.60546875,-1.46484375
7,1734037278896.3438,34.66796875,-1000,-588.8671875,20.99609375
8,1734037278900.25,-45.8984375,-1000,-785.15625,-44.43359375
9,1734037278904.1562,-67.87109375,-999.51171875,-856.4453125,-62.5
10,1734037278908.0625,-3.90625,-987.79296875,-591.30859375,-16.6015625
11,1734037278911.9688,13.18359375,-996.58203125,-550.78125,-5.37109375
0,1734037278915.875,-41.50390625,-1000,-757.32421875,-70.80078125
1,1734037278919.7812,-72.265625,-1000,-862.3046875,-112.79296875
2,1734037278923.6875,-23.4375,-979.4921875,-594.7265625,-64.94140625
3,1734037278927.5938,41.50390625,-919.921875,-497.55859375,-32.71484375
4,1734037278931.5,6.34765625,-956.0546875,-656.25,-68.359375
5,1734037278935.4062,-58.59375,-1000,-794.921875,-145.99609375
6,1734037278939.3125,-19.53125,-984.86328125,-674.31640625,-125.48828125
7,1734037278943.2188,51.7578125,-951.66015625,-559.08203125,-45.8984375
8,1734037278947.125,46.875,-992.1875,-659.1796875,-53.22265625
9,1734037278951.0312,-27.83203125,-1000,-710.9375,-173.828125
10,1734037278954.9375,-31.73828125,-992.1875,-646.97265625,-199.21875
11,1734037278958.8438,27.34375,-973.14453125,-584.9609375,-111.328125
0,1734037278962.75,29.78515625,-994.62890625,-654.296875,-59.5703125
1,1734037278966.6562,-40.0390625,-1000,-733.3984375,-129.8828125
2,1734037278970.5625,-90.33203125,-998.53515625,-724.12109375,-222.65625
3,1734037278974.4688,-24.4140625,-1000,-634.765625,-134.27734375
4,1734037278978.375,5.859375,-999.0234375,-654.78515625,-85.9375
5,1734037278982.2812,-61.03515625,-1000,-720.21484375,-167.96875
6,1734037278986.1875,-121.09375,-997.0703125,-727.5390625,-230.46875
7,1734037278990.0938,-62.98828125,-1000,-754.8828125,-167.48046875
8,1734037278994,-0.48828125,-967.28515625,-698.2421875,-102.5390625
9,1734037278997.9062,-48.828125,-936.5234375,-559.5703125,-143.5546875
10,1734037279001.8125,-110.3515625,-994.62890625,-622.55859375,-237.3046875
11,1734037279005.7188,-74.21875,-1000,-726.5625,-203.61328125
0,1734037279009.625,4.39453125,-987.3046875,-766.6015625,-100.09765625
1,1734037279013.5312,4.8828125,-927.734375,-541.015625,-157.71484375
2,1734037279017.4375,-56.640625,-965.33203125,-607.91015625,-256.34765625
3,1734037279021.3438,-59.08203125,-1000,-712.40234375,-247.55859375
4,1734037279025.25,13.671875,-997.55859375,-631.8359375,-141.6015625
5,1734037279029.1562,28.80859375,-1000,-622.0703125,-75.68359375
6,1734037279033.0625,-51.26953125,-995.60546875,-681.640625,-136.71875
7,1734037279036.9688,-75.68359375,-1000,-838.8671875,-174.31640625
8,1734037279040.875,5.859375,-967.28515625,-758.30078125,-91.796875
9,1734037279044.7812,35.64453125,-840.33203125,-491.2109375,-64.94140625
10,1734037279048.6875,-10.25390625,-899.4140625,-589.84375,-119.140625
11,1734037279052.5938,-59.08203125,-1000,-829.1015625,-159.66796875
0,1734037279056.5,-30.76171875,-983.3984375,-724.12109375,-92.7734375
1,1734037279060.4062,20.99609375,-899.90234375,-505.859375,-2.9296875
2,1734037279064.3125,-6.8359375,-921.875,-613.76953125,16.6015625
3,1734037279068.2188,-84.47265625,-1000,-752.9296875,-64.94140625
4,1734037279072.125,-57.12890625,-999.51171875,-695.80078125,-67.87109375
5,1734037279076.0312,35.64453125,-997.55859375,-646.484375,-7.8125
6,1734037279079.9375,63.4765625,-1000,-742.1875,-98.6328125
7,1734037279083.8438,2.44140625,-999.0234375,-885.7421875,-274.4140625
8,1734037279087.75,16.6015625,-1000,-800.78125,-394.53125
9,1734037279091.6562,122.0703125,-980.95703125,-602.05078125,-388.18359375
10,1734037279095.5625,166.015625,-975.5859375,-668.9453125,-387.6953125
11,1734037279099.4688,128.41796875,-1000,-860.83984375,-510.7421875
0,1734037279103.375,79.58984375,-1000,-726.5625,-595.703125
1,1734037279107.2812,159.1796875,-991.69921875,-615.72265625,-483.3984375
2,1734037279111.1875,228.02734375,-981.4453125,-591.30859375,-389.16015625
3,1734037279115.0938,179.6875,-994.62890625,-617.67578125,-428.7109375
4,1734037279119,107.421875,-1000,-720.21484375,-493.65234375
5,1734037279122.9062,139.6484375,-1000,-739.74609375,-413.57421875
6,1734037279126.8125,193.359375,-1000,-712.890625,-288.57421875
7,1734037279130.7188,173.33984375,-999.0234375,-656.25,-269.53125
8,1734037279134.625,97.65625,-999.51171875,-711.42578125,-319.3359375
9,1734037279138.5312,88.37890625,-1000,-740.234375,-266.6015625
10,1734037279142.4375,149.4140625,-1000,-766.6015625,-84.9609375
11,1734037279146.3438,128.41796875,-992.67578125,-753.41796875,-16.11328125
0,1734037279150.25,28.3203125,-995.60546875,-628.41796875,-85.44921875
1,1734037279154.1562,-5.859375,-1000,-692.3828125,-66.40625
2,1734037279158.0625,62.98828125,-981.93359375,-615.234375,53.7109375
3,1734037279161.9688,69.3359375,-947.265625,-507.32421875,126.953125
4,1734037279165.875,-12.20703125,-977.5390625,-599.12109375,95.21484375
5,1734037279169.7812,-66.40625,-1000,-798.828125,45.8984375
6,1734037279173.6875,-16.11328125,-999.0234375,-764.16015625,125.9765625
7,1734037279177.5938,17.08984375,-1000,-589.84375,199.21875
8,1734037279181.5,-41.9921875,-988.28125,-536.1328125,152.34375
9,1734037279185.4062,-111.81640625,-1000,-727.05078125,102.05078125
10,1734037279189.3125,-80.56640625,-965.8203125,-735.3515625,167.48046875
11,1734037279193.2188,-18.06640625,-925.29296875,-485.3515625,255.37109375
0,1734037279197.125,-38.57421875,-903.80859375,-442.87109375,263.18359375
1,1734037279201.0312,-95.703125,-933.59375,-677.24609375,211.9140625
2,1734037279204.9375,-87.890625,-1000,-805.6640625,214.35546875
3,1734037279208.8438,-25.390625,-783.69140625,-430.17578125,300.78125
4,1734037279212.75,-7.32421875,-653.80859375,-400.390625,358.3984375
5,1734037279216.6562,-71.2890625,-929.6875,-668.9453125,312.98828125
6,1734037279220.5625,-102.05078125,-1000,-666.50390625,288.57421875
7,1734037279224.4688,-23.92578125,-757.32421875,-406.73828125,375
8,1734037279228.375,20.5078125,-506.8359375,-363.28125,434.08203125
9,1734037279232.2812,-31.73828125,-807.12890625,-584.9609375,366.2109375
10,1734037279236.1875,-91.796875,-1000,-598.6328125,263.18359375
11,1734037279240.0938,-22.4609375,-745.60546875,-400.390625,297.8515625
0,1734037279244,39.0625,-523.92578125,-336.9140625,354.4921875
1,1734037279247.9062,-0.48828125,-835.9375,-542.48046875,299.31640625
2,1734037279251.8125,-80.078125,-1000,-654.296875,167.96875
3,1734037279255.7188,-40.52734375,-840.8203125,-462.40234375,158.203125
4,1734037279259.625,56.640625,-694.3359375,-417.48046875,240.72265625
5,1734037279263.5312,45.41015625,-940.91796875,-598.14453125,215.33203125
6,1734037279267.4375,-33.69140625,-1000,-629.39453125,78.125
7,1734037279271.3438,-14.16015625,-978.515625,-554.19921875,23.92578125
8,1734037279275.25,86.9140625,-966.796875,-540.0390625,101.5625
9,1734037279279.1562,83.984375,-981.4453125,-700.68359375,122.0703125
10,1734037279283.0625,-10.7421875,-953.125,-589.84375,0.48828125
11,1734037279286.9688,-65.91796875,-865.72265625,-476.5625,-56.15234375
0,1734037279290.875,3.41796875,-859.375,-435.546875,82.03125
1,1734037279294.7812,18.5546875,-625.48828125,-324.21875,153.80859375
2,1734037279298.6875,-70.3125,-478.02734375,-373.046875,86.9140625
3,1734037279302.5938,-136.23046875,-871.09375,-535.15625,13.18359375
4,1734037279306.5,-81.54296875,-982.421875,-519.53125,63.96484375
5,1734037279310.4062,-33.203125,-894.04296875,-417.96875,119.62890625
6,1734037279314.3125,-66.89453125,-930.17578125,-459.47265625,68.359375
7,1734037279318.2188,-107.91015625,-994.62890625,-588.8671875,-28.80859375
8,1734037279322.125,-60.05859375,-1000,-608.3984375,-22.4609375
9,1734037279326.0312,28.3203125,-678.22265625,-376.953125,60.546875
10,1734037279329.9375,34.1796875,-320.80078125,-267.08984375,66.89453125
11,1734037279333.8438,-33.69140625,-641.11328125,-436.03515625,-13.671875
0,1734037279337.75,-10.25390625,-1000,-734.86328125,-11.71875
1,1734037279341.6562,75.1953125,-835.9375,-613.76953125,80.56640625
2,1734037279345.5625,92.28515625,-317.87109375,-227.05078125,105.95703125
3,1734037279349.4688,37.59765625,-548.828125,-420.41015625,59.08203125
4,1734037279353.375,-21.97265625,-1000,-627.44140625,11.71875
5,1734037279357.2812,46.875,-975.5859375,-497.55859375,104.98046875
6,1734037279361.1875,94.23828125,-832.51953125,-366.2109375,184.5703125
7,1734037279365.0938,39.55078125,-858.88671875,-476.5625,146.484375
8,1734037279369,-17.08984375,-1000,-829.58984375,90.33203125
9,1734037279372.9062,24.4140625,-905.2734375,-665.52734375,134.27734375
10,1734037279376.8125,77.63671875,-221.6796875,-90.8203125,208.49609375
11,1734037279380.7188,39.0625,-257.32421875,-160.15625,215.8203125
0,1734037279384.625,-54.19921875,-748.53515625,-440.91796875,117.67578125
1,1734037279388.5312,-56.640625,-487.79296875,-327.63671875,86.42578125
2,1734037279392.4375,12.6953125,-61.5234375,-85.44921875,157.71484375
3,1734037279396.3438,11.71875,-267.578125,-108.88671875,146.484375
4,1734037279400.25,-85.44921875,-677.734375,-376.46484375,27.34375
5,1734037279404.1562,-116.2109375,-881.8359375,-490.234375,-40.0390625
6,1734037279408.0625,-43.9453125,-766.11328125,-347.16796875,31.25
7,1734037279411.9688,-21.97265625,-697.265625,-330.078125,79.58984375
8,1734037279415.875,-87.890625,-694.3359375,-388.671875,0
9,1734037279419.7812,-137.20703125,-763.18359375,-424.8046875,-95.703125
10,1734037279423.6875,-75.1953125,-472.16796875,-185.546875,-43.45703125
11,1734037279427.5938,-15.13671875,-549.8046875,-339.84375,41.015625
0,1734037279431.5,-42.96875,-838.8671875,-508.7890625,-24.90234375
1,1734037279435.4062,-108.3984375,-413.0859375,-253.90625,-152.34375
2,1734037279439.3125,-56.15234375,-372.55859375,-289.0625,-96.6796875
3,1734037279443.2188,41.015625,-248.046875,-123.046875,18.06640625
4,1734037279447.125,26.3671875,-9.27734375,25.87890625,14.6484375
5,1734037279451.0312,-30.2734375,-489.74609375,-287.59765625,-62.01171875
6,1734037279454.9375,-21.97265625,-943.84765625,-457.03125,-45.8984375
7,1734037279458.8438,42.96875,-958.984375,-483.88671875,63.96484375
8,1734037279462.75,55.17578125,-527.34375,-168.45703125,74.21875
9,1734037279466.6562,-23.4375,-74.70703125,-35.15625,-27.83203125
10,1734037279470.5625,-32.2265625,-573.73046875,-452.1484375,-56.15234375
11,1734037279474.4688,45.8984375,-834.47265625,-466.796875,34.1796875
0,1734037279478.375,63.4765625,-206.54296875,-66.89453125,60.546875
1,1734037279482.2812,24.4140625,92.28515625,56.640625,-22.94921875
2,1734037279486.1875,-21.97265625,-607.421875,-423.33984375,-101.5625
3,1734037279490.0938,4.8828125,-831.0546875,-518.5546875,-44.43359375
4,1734037279494,43.45703125,-51.7578125,13.18359375,-3.90625
5,1734037279497.9062,8.30078125,-177.24609375,-105.46875,-54.6875
6,1734037279501.8125,-62.01171875,-911.1328125,-617.1875,-136.71875
7,1734037279505.7188,-30.76171875,-787.59765625,-517.578125,-155.76171875
8,1734037279509.625,20.99609375,-56.640625,31.73828125,-119.140625
9,1734037279513.5312,-7.32421875,85.44921875,20.99609375,-118.1640625
10,1734037279517.4375,-77.1484375,-590.33203125,-388.18359375,-205.078125
11,1734037279521.3438,-99.12109375,-739.2578125,-398.4375,-250.9765625
0,1734037279525.25,-32.2265625,-141.6015625,-74.70703125,-193.359375
1,1734037279529.1562,-19.53125,-100.5859375,-37.59765625,-167.48046875
2,1734037279533.0625,-78.61328125,-733.88671875,-379.8828125,-265.13671875
3,1734037279536.9688,-95.703125,-886.71875,-431.15234375,-339.35546875
4,1734037279540.875,-16.6015625,-465.8203125,-273.4375,-260.7421875
5,1734037279544.7812,28.80859375,-616.2109375,-352.05078125,-250.48828125
6,1734037279548.6875,-12.20703125,-962.890625,-606.4453125,-344.7265625
7,1734037279552.5938,-67.87109375,-1000,-661.1328125,-428.7109375
8,1734037279556.5,-20.01953125,-763.671875,-367.67578125,-431.15234375
9,1734037279560.4062,25.87890625,-580.56640625,-388.18359375,-366.2109375
10,1734037279564.3125,-14.6484375,-908.203125,-608.3984375,-213.8671875
11,1734037279568.2188,-85.9375,-949.70703125,-493.65234375,-146.97265625
0,1734037279572.125,-68.359375,-828.125,-447.265625,-10.7421875
1,1734037279576.0312,4.39453125,-759.27734375,-379.39453125,258.7890625
2,1734037279579.9375,0.9765625,-751.953125,-372.55859375,201.66015625
3,1734037279583.8438,-79.58984375,-798.33984375,-479.00390625,-44.921875
4,1734037279587.75,-104.00390625,-1000,-592.7734375,-89.84375
5,1734037279591.6562,-22.94921875,-987.3046875,-567.87109375,35.15625
6,1734037279595.5625,-1.953125,-956.54296875,-478.515625,90.33203125
7,1734037279599.4688,-89.35546875,-985.83984375,-528.3203125,35.15625
8,1734037279603.375,-143.06640625,-992.1875,-566.89453125,-13.18359375
9,1734037279607.2812,-73.73046875,-1000,-710.9375,62.98828125
10,1734037279611.1875,-51.26953125,-936.03515625,-663.57421875,133.7890625
11,1734037279615.0938,-120.1171875,-850.09765625,-437.98828125,69.82421875
0,1734037279619,-170.41015625,-996.09375,-598.6328125,-17.08984375
1,1734037279622.9062,-110.83984375,-967.7734375,-556.640625,38.57421875
2,1734037279626.8125,-62.5,-685.05859375,-362.79296875,133.7890625
3,1734037279630.7188,-85.44921875,-652.34375,-381.34765625,104.98046875
4,1734037279634.625,-123.046875,-919.921875,-585.44921875,6.34765625
5,1734037279638.5312,-74.70703125,-1000,-663.0859375,-0.48828125
6,1734037279642.4375,7.32421875,-981.93359375,-516.6015625,67.3828125
7,1734037279646.3438,12.20703125,-975.5859375,-448.73046875,52.24609375
8,1734037279650.25,-24.4140625,-976.5625,-602.05078125,-42.96875
9,1734037279654.1562,-22.94921875,-1000,-862.3046875,-76.66015625
10,1734037279658.0625,58.10546875,-833.49609375,-583.984375,-4.8828125
11,1734037279661.9688,80.078125,-240.72265625,-188.96484375,-9.27734375
0,1734037279665.875,30.76171875,-491.2109375,-369.140625,-90.8203125
1,1734037279669.7812,7.8125,-934.08203125,-496.09375,-114.2578125
2,1734037279673.6875,69.82421875,-476.5625,-283.203125,-39.55078125
3,1734037279677.5938,107.421875,-79.1015625,-160.64453125,-24.90234375
4,1734037279681.5,65.4296875,-508.7890625,-346.19140625,-86.9140625
5,1734037279685.4062,19.04296875,-1000,-572.75390625,-179.19921875
6,1734037279689.3125,76.66015625,-961.42578125,-485.3515625,-163.57421875
7,1734037279693.2188,135.7421875,-364.74609375,-120.60546875,-103.515625
8,1734037279697.125,97.65625,-475.5859375,-358.88671875,-109.86328125
9,1734037279701.0312,-19.53125,-1000,-717.28515625,-180.17578125
10,1734037279704.9375,-86.9140625,-780.76171875,-376.953125,-203.61328125
11,1734037279708.8438,-46.875,-401.85546875,-267.578125,-78.61328125
0,1734037279712.75,-61.5234375,-672.8515625,-437.01171875,-12.6953125
1,1734037279716.6562,-156.25,-970.703125,-484.86328125,-75.1953125
2,1734037279720.5625,-168.9453125,-901.85546875,-451.66015625,-103.515625
3,1734037279724.4688,-56.15234375,-726.5625,-369.62890625,6.34765625
4,1734037279728.375,-1.953125,-702.1484375,-357.421875,72.265625
5,1734037279732.2812,-62.98828125,-869.140625,-485.83984375,23.4375
6,1734037279736.1875,-131.8359375,-1000,-560.05859375,-48.33984375
7,1734037279740.0938,-108.88671875,-985.3515625,-492.67578125,5.859375
8,1734037279744,-73.2421875,-1000,-684.5703125,124.0234375
9,1734037279747.9062,-110.83984375,-915.0390625,-628.41796875,133.30078125
10,1734037279751.8125,-155.76171875,-815.4296875,-408.203125,63.96484375
11,1734037279755.7188,-103.515625,-976.5625,-475.5859375,117.67578125
0,1734037279759.625,-28.3203125,-819.3359375,-395.99609375,198.2421875
1,1734037279763.5312,-36.62109375,-449.70703125,-283.69140625,110.3515625
2,1734037279767.4375,-97.16796875,-705.56640625,-429.6875,-58.59375
3,1734037279771.3438,-62.01171875,-1000,-605.46875,-142.578125
4,1734037279775.25,59.5703125,-828.125,-519.53125,-152.34375
5,1734037279779.1562,83.49609375,-768.06640625,-402.83203125,-224.609375
6,1734037279783.0625,26.3671875,-970.21484375,-496.58203125,-373.53515625
7,1734037279786.9688,24.90234375,-1000,-719.7265625,-444.3359375
8,1734037279790.875,115.72265625,-852.05078125,-613.28125,-355.95703125
9,1734037279794.7812,166.015625,-368.65234375,-214.84375,-323.73046875
10,1734037279798.6875,138.671875,-460.9375,-366.69921875,-362.79296875
11,1734037279802.5938,88.37890625,-953.61328125,-566.40625,-410.64453125
0,1734037279806.5,129.8828125,-745.1171875,-361.328125,-352.05078125
1,1734037279810.4062,192.3828125,-271.97265625,-198.2421875,-248.046875
2,1734037279814.3125,162.59765625,-582.03125,-357.421875,-239.2578125
3,1734037279818.2188,66.89453125,-1000,-540.0390625,-284.66796875
4,1734037279822.125,56.640625,-726.07421875,-379.39453125,-230.46875
5,1734037279826.0312,112.79296875,-527.83203125,-245.1171875,-77.63671875
6,1734037279829.9375,83.0078125,-730.95703125,-356.4453125,-15.625
7,1734037279833.8438,-2.9296875,-987.79296875,-620.1171875,-50.29296875
8,1734037279837.75,-28.80859375,-872.55859375,-444.3359375,-56.15234375
9,1734037279841.6562,18.5546875,-104.98046875,29.78515625,4.39453125
10,1734037279845.5625,44.43359375,-115.72265625,-61.03515625,69.82421875
11,1734037279849.4688,-14.16015625,-717.7734375,-411.1328125,69.82421875
0,1734037279853.375,-61.5234375,-454.1015625,-248.046875,29.296875
1,1734037279857.2812,14.16015625,3.41796875,30.76171875,104.98046875
2,1734037279861.1875,61.5234375,4.39453125,51.26953125,196.2890625
3,1734037279865.0938,30.2734375,-141.11328125,-14.16015625,162.59765625
4,1734037279869,-9.27734375,-317.3828125,-152.34375,83.49609375
5,1734037279872.9062,38.57421875,-338.37890625,-117.1875,142.578125
6,1734037279876.8125,101.5625,-528.80859375,-165.0390625,254.39453125
7,1734037279880.7188,82.03125,-841.30859375,-392.08984375,239.2578125
8,1734037279884.625,19.04296875,-204.1015625,-27.34375,137.6953125
9,1734037279888.5312,38.0859375,178.7109375,114.2578125,168.9453125
10,1734037279892.4375,117.1875,313.96484375,187.5,278.3203125
11,1734037279896.3438,115.234375,623.046875,257.8125,296.875
0,1734037279900.25,49.8046875,598.6328125,158.69140625,219.7265625
1,1734037279904.1562,36.1328125,224.12109375,54.19921875,189.94140625
2,1734037279908.0625,102.05078125,267.08984375,138.671875,272.4609375
3,1734037279911.9688,115.234375,762.6953125,292.96875,305.6640625
4,1734037279915.875,57.6171875,747.55859375,187.5,234.375
5,1734037279919.7812,16.6015625,78.125,19.04296875,165.0390625
6,1734037279923.6875,80.56640625,-530.76171875,-109.375,249.0234375
7,1734037279927.5938,118.65234375,-64.453125,85.9375,287.59765625
8,1734037279931.5,82.51953125,532.2265625,265.625,216.796875
9,1734037279935.4062,27.34375,-55.17578125,-41.9921875,128.90625
10,1734037279939.3125,60.05859375,-218.26171875,-33.203125,148.92578125
11,1734037279943.2188,122.55859375,680.17578125,312.01171875,210.44921875
0,1734037279947.125,104.4921875,999.51171875,381.34765625,176.26953125
1,1734037279951.0312,52.24609375,347.65625,-27.34375,52.734375
2,1734037279954.9375,65.4296875,-258.30078125,-173.828125,0
3,1734037279958.8438,134.765625,718.26171875,327.63671875,43.45703125
4,1734037279962.75,132.8125,999.51171875,371.58203125,24.90234375
5,1734037279966.6562,67.87109375,180.6640625,-7.32421875,-55.17578125
6,1734037279970.5625,39.0625,-356.4453125,-122.55859375,-90.33203125
7,1734037279974.4688,87.40234375,571.77734375,275.87890625,2.9296875
8,1734037279978.375,106.93359375,999.51171875,394.53125,87.890625
9,1734037279982.2812,35.15625,171.38671875,-21.484375,50.29296875
10,1734037279986.1875,-32.71484375,-346.6796875,-127.44140625,-20.5078125
11,1734037279990.0938,6.34765625,697.75390625,312.5,42.96875
0,1734037279994,53.22265625,963.8671875,289.0625,155.2734375
1,1734037279997.9062,19.53125,585.44921875,198.2421875,135.7421875
2,1734037280001.8125,-45.8984375,386.71875,168.45703125,2.44140625
3,1734037280005.7188,-15.625,643.5546875,232.421875,-9.765625
4,1734037280009.625,38.0859375,854.00390625,272.94921875,82.03125
5,1734037280013.5312,20.99609375,503.90625,190.4296875,89.35546875
6,1734037280017.4375,-30.2734375,22.94921875,71.77734375,-18.06640625
7,1734037280021.3438,-16.6015625,4.8828125,78.125,-40.0390625
8,1734037280025.25,46.875,173.33984375,112.79296875,72.75390625
9,1734037280029.1562,54.6875,192.3828125,150.87890625,99.609375
10,1734037280033.0625,-7.8125,394.04296875,173.828125,-0.48828125
11,1734037280036.9688,-49.31640625,393.06640625,125.48828125,-57.6171875
0,1734037280040.875,18.06640625,147.4609375,66.89453125,51.7578125
1,1734037280044.7812,62.5,-775.390625,-357.421875,142.08984375
2,1734037280048.6875,0,-598.14453125,-194.82421875,52.734375
3,1734037280052.5938,-56.15234375,339.84375,184.5703125,-43.9453125
4,1734037280056.5,-0.9765625,201.66015625,121.09375,57.12890625
5,1734037280060.4062,40.52734375,201.171875,165.52734375,159.66796875
6,1734037280064.3125,5.37109375,241.69921875,134.27734375,130.37109375
7,1734037280068.2188,-63.4765625,277.83203125,125,37.109375
8,1734037280072.125,-46.875,-366.69921875,-164.0625,74.70703125
9,1734037280076.0312,7.32421875,-503.90625,-152.83203125,188.96484375
10,1734037280079.9375,-19.04296875,671.875,297.36328125,150.87890625
11,1734037280083.8438,-79.58984375,487.79296875,102.5390625,8.7890625
0,1734037280087.75,-78.125,-54.6875,31.73828125,-41.9921875
1,1734037280091.6562,-32.2265625,375.48828125,226.07421875,39.55078125
2,1734037280095.5625,-19.53125,581.54296875,221.6796875,62.01171875
3,1734037280099.4688,-100.09765625,0.48828125,9.765625,-66.40625
4,1734037280103.375,-146.97265625,-513.671875,-213.37890625,-182.6171875
5,1734037280107.2812,-51.26953125,-364.74609375,-57.12890625,-105.95703125
6,1734037280111.1875,7.8125,31.25,130.37109375,-31.73828125
7,1734037280115.0938,-26.3671875,-60.05859375,34.66796875,-111.81640625
8,1734037280119,-96.6796875,-839.35546875,-510.7421875,-211.42578125
9,1734037280122.9062,-70.3125,-864.2578125,-463.8671875,-169.921875
10,1734037280126.8125,-14.16015625,298.828125,200.68359375,-90.8203125
11,1734037280130.7188,-0.48828125,394.53125,99.12109375,-97.65625
0,1734037280134.625,-49.8046875,-171.38671875,-124.51171875,-220.703125
1,1734037280138.5312,-45.41015625,89.35546875,76.66015625,-215.33203125
2,1734037280142.4375,43.9453125,477.05078125,190.4296875,-69.82421875
3,1734037280146.3438,71.2890625,250.9765625,71.77734375,-54.6875
4,1734037280150.25,20.99609375,-194.82421875,-71.2890625,-172.36328125
5,1734037280154.1562,23.4375,-413.0859375,-229.98046875,-204.58984375
6,1734037280158.0625,89.35546875,-218.26171875,-60.546875,-97.65625
7,1734037280161.9688,100.09765625,-450.1953125,-156.25,-47.36328125
8,1734037280165.875,48.33984375,-929.19921875,-497.0703125,-155.2734375
9,1734037280169.7812,3.41796875,-358.88671875,-182.6171875,-290.0390625
10,1734037280173.6875,57.12890625,116.2109375,31.73828125,-181.15234375
11,1734037280177.5938,109.86328125,118.1640625,102.05078125,-68.84765625
0,1734037280181.5,55.6640625,138.671875,94.7265625,-151.3671875
1,1734037280185.4062,-1.46484375,-63.4765625,-119.140625,-284.1796875
2,1734037280189.3125,41.9921875,-238.28125,-159.66796875,-239.2578125
3,1734037280193.2188,92.28515625,-119.140625,28.3203125,-114.2578125
4,1734037280197.125,68.84765625,37.59765625,40.0390625,-131.34765625
5,1734037280201.0312,-14.16015625,-463.37890625,-314.453125,-266.6015625
6,1734037280204.9375,-41.015625,-917.48046875,-445.3125,-283.69140625
7,1734037280208.8438,22.94921875,-963.8671875,-523.4375,-141.6015625
8,1734037280212.75,2.44140625,-890.625,-493.1640625,-140.13671875
9,1734037280216.6562,-76.171875,-538.0859375,-281.25,-291.9921875
10,1734037280220.5625,-63.96484375,-721.19140625,-487.79296875,-333.0078125
11,1734037280224.4688,-21.484375,-788.57421875,-496.09375,-191.89453125
0,1734037280228.375,-14.16015625,-109.375,-2.44140625,-114.74609375
1,1734037280232.2812,-63.96484375,-84.47265625,-106.4453125,-218.26171875
2,1734037280236.1875,-106.4453125,-708.984375,-468.26171875,-333.49609375
3,1734037280240.0938,-37.59765625,-774.4140625,-352.05078125,-247.0703125
4,1734037280244,2.44140625,-310.05859375,-221.6796875,-149.90234375
5,1734037280247.9062,-41.9921875,-586.9140625,-372.55859375,-202.1484375
6,1734037280251.8125,-82.03125,-1000,-714.35546875,-303.7109375
7,1734037280255.7188,-55.6640625,-853.02734375,-649.4140625,-238.28125
8,1734037280259.625,-11.23046875,-378.90625,-239.74609375,-105.46875
9,1734037280263.5312,-18.06640625,-451.171875,-356.93359375,-90.8203125
10,1734037280267.4375,-88.8671875,-922.8515625,-626.953125,-178.7109375
11,1734037280271.3438,-93.26171875,-905.2734375,-509.765625,-166.9921875
0,1734037280275.25,-18.5546875,-461.42578125,-282.2265625,-2.44140625
1,1734037280279.1562,-17.08984375,-374.0234375,-316.40625,39.55078125
2,1734037280283.0625,-63.96484375,-844.7265625,-516.11328125,-77.63671875
3,1734037280286.9688,-101.5625,-976.5625,-512.20703125,-134.765625
4,1734037280290.875,-67.3828125,-666.9921875,-368.65234375,-13.18359375
5,1734037280294.7812,-2.9296875,-770.5078125,-435.546875,53.22265625
6,1734037280298.6875,-35.64453125,-997.55859375,-637.20703125,-24.90234375
7,1734037280302.5938,-106.4453125,-1000,-668.45703125,-142.08984375
8,1734037280306.5,-76.66015625,-802.24609375,-404.296875,-75.68359375
9,1734037280310.4062,-13.18359375,-637.20703125,-412.59765625,58.10546875
10,1734037280314.3125,-27.83203125,-919.43359375,-608.3984375,15.625
11,1734037280318.2188,-99.12109375,-943.84765625,-531.73828125,-164.0625
0,1734037280322.125,-81.0546875,-956.54296875,-502.9296875,-152.83203125
1,1734037280326.0312,-7.32421875,-977.5390625,-537.109375,1.953125
2,1734037280329.9375,2.9296875,-848.14453125,-545.8984375,-4.8828125
3,1734037280333.8438,-58.10546875,-787.59765625,-462.890625,-174.31640625
4,1734037280337.75,-85.9375,-956.0546875,-533.69140625,-227.05078125
5,1734037280341.6562,-43.9453125,-955.078125,-524.90234375,-81.0546875
6,1734037280345.5625,3.90625,-972.16796875,-501.953125,-22.4609375
7,1734037280349.4688,-22.94921875,-988.28125,-532.2265625,-150.87890625
8,1734037280353.375,-65.4296875,-977.5390625,-541.50390625,-245.1171875
9,1734037280357.2812,-11.23046875,-1000,-689.94140625,-94.7265625
10,1734037280361.1875,35.15625,-863.76953125,-589.84375,3.90625
11,1734037280365.0938,-5.859375,-678.7109375,-368.1640625,-106.4453125
0,1734037280369,-58.59375,-952.1484375,-590.8203125,-230.95703125
1,1734037280372.9062,-18.5546875,-926.26953125,-535.15625,-144.53125
2,1734037280376.8125,38.0859375,-736.81640625,-396.484375,-6.34765625
3,1734037280380.7188,15.13671875,-869.62890625,-450.1953125,-47.36328125
4,1734037280384.625,-51.26953125,-963.37890625,-591.796875,-198.2421875
5,1734037280388.5312,-37.59765625,-989.2578125,-704.58984375,-187.01171875
6,1734037280392.4375,30.76171875,-958.0078125,-523.92578125,-35.15625
7,1734037280396.3438,3.41796875,-957.51953125,-435.546875,-30.2734375
8,1734037280400.25,-85.44921875,-991.2109375,-661.1328125,-176.7578125
9,1734037280404.1562,-110.3515625,-1000,-780.76171875,-211.9140625
10,1734037280408.0625,-60.546875,-728.515625,-417.48046875,-94.23828125
11,1734037280411.9688,-36.62109375,-436.03515625,-318.84765625,-59.08203125
0,1734037280415.875,-87.890625,-734.86328125,-528.3203125,-180.17578125
1,1734037280419.7812,-133.7890625,-1000,-622.0703125,-290.52734375
2,1734037280423.6875,-91.796875,-830.56640625,-458.984375,-171.38671875
3,1734037280427.5938,-73.73046875,-588.8671875,-380.859375,-54.19921875
4,1734037280431.5,-104.98046875,-808.59375,-550.29296875,-120.60546875
5,1734037280435.4062,-169.921875,-1000,-721.6796875,-274.4140625
6,1734037280439.3125,-159.1796875,-990.72265625,-680.6640625,-225.09765625
7,1734037280443.2188,-92.7734375,-998.046875,-545.41015625,-88.37890625
8,1734037280447.125,-76.66015625,-992.67578125,-697.75390625,-102.5390625
9,1734037280451.0312,-141.6015625,-1000,-858.3984375,-259.765625
10,1734037280454.9375,-126.953125,-967.28515625,-592.28515625,-265.13671875
11,1734037280458.8438,-32.71484375,-812.98828125,-471.6796875,-42.48046875
0,1734037280462.75,-15.13671875,-865.234375,-537.59765625,40.52734375
1,1734037280466.6562,-48.828125,-977.5390625,-617.1875,-70.80078125
2,1734037280470.5625,-68.359375,-988.76953125,-641.6015625,-104.4921875
3,1734037280474.4688,8.30078125,-961.9140625,-556.640625,71.2890625
4,1734037280478.375,53.7109375,-972.65625,-563.96484375,120.1171875
5,1734037280482.2812,17.578125,-997.0703125,-698.73046875,-91.796875
6,1734037280486.1875,1.953125,-1000,-783.203125,-316.40625
7,1734037280490.0938,73.2421875,-999.51171875,-701.66015625,-288.0859375
8,1734037280494,125,-1000,-822.265625,-196.77734375
9,1734037280497.9062,94.7265625,-1000,-823.73046875,-328.61328125
10,1734037280501.8125,41.50390625,-995.60546875,-664.55078125,-572.75390625
11,1734037280505.7188,74.70703125,-1000,-686.5234375,-523.4375
0,1734037280509.625,111.328125,-928.22265625,-603.02734375,-376.953125
1,1734037280513.5312,85.44921875,-887.20703125,-521.97265625,-405.76171875
2,1734037280517.4375,20.99609375,-1000,-682.12890625,-547.8515625
3,1734037280521.3438,0.48828125,-999.0234375,-711.42578125,-562.98828125
4,1734037280525.25,46.38671875,-968.26171875,-583.0078125,-380.859375
5,1734037280529.1562,39.0625,-996.09375,-623.046875,-303.7109375
6,1734037280533.0625,-15.625,-999.0234375,-716.796875,-424.31640625
7,1734037280536.9688,-47.36328125,-1000,-877.9296875,-470.703125
8,1734037280540.875,-19.04296875,-957.51953125,-751.46484375,-298.828125
9,1734037280544.7812,0.9765625,-917.96875,-507.8125,-185.546875
10,1734037280548.6875,-32.71484375,-993.1640625,-687.98828125,-259.27734375
11,1734037280552.5938,-97.16796875,-1000,-809.08203125,-356.93359375
0,1734037280556.5,-60.05859375,-968.26171875,-604.00390625,-192.87109375
1,1734037280560.4062,8.30078125,-854.98046875,-458.49609375,-8.30078125
2,1734037280564.3125,-18.06640625,-904.78515625,-581.0546875,-43.45703125
3,1734037280568.2188,-82.03125,-1000,-709.47265625,-193.359375
4,1734037280572.125,-75.68359375,-993.1640625,-640.625,-138.18359375
5,1734037280576.0312,-3.41796875,-996.58203125,-593.26171875,61.5234375
6,1734037280579.9375,-5.37109375,-999.0234375,-631.8359375,69.82421875
7,1734037280583.8438,-61.5234375,-995.60546875,-869.140625,-49.31640625
8,1734037280587.75,-77.63671875,-1000,-807.12890625,-53.22265625
9,1734037280591.6562,-23.4375,-791.015625,-420.41015625,94.7265625
10,1734037280595.5625,17.08984375,-759.765625,-532.71484375,203.125
11,1734037280599.4688,-37.109375,-996.09375,-726.07421875,98.6328125
0,1734037280603.375,-63.4765625,-1000,-669.43359375,-10.25390625
1,1734037280607.2812,-18.5546875,-866.69921875,-503.90625,152.83203125
2,1734037280611.1875,10.7421875,-800.78125,-509.765625,268.5546875
3,1734037280615.0938,-26.85546875,-991.69921875,-664.55078125,160.64453125
4,1734037280619,-90.33203125,-1000,-619.140625,10.25390625
5,1734037280622.9062,-34.66796875,-979.98046875,-554.6875,114.2578125
6,1734037280626.8125,34.1796875,-1000,-623.046875,275.87890625
7,1734037280630.7188,-9.27734375,-916.015625,-671.38671875,215.8203125
8,1734037280634.625,-77.63671875,-882.32421875,-518.5546875,26.85546875
9,1734037280638.5312,-45.41015625,-912.109375,-517.578125,68.84765625
10,1734037280642.4375,19.04296875,-805.17578125,-433.59375,261.71875
11,1734037280646.3438,20.01953125,-568.84765625,-332.03125,254.39453125
0,1734037280650.25,-32.71484375,-654.78515625,-459.47265625,73.2421875
1,1734037280654.1562,-9.765625,-975.09765625,-549.31640625,15.13671875
2,1734037280658.0625,74.21875,-854.98046875,-453.125,184.08203125
3,1734037280661.9688,76.66015625,-725.09765625,-366.69921875,231.4453125
4,1734037280665.875,42.48046875,-745.1171875,-400.87890625,49.31640625
5,1734037280669.7812,25.87890625,-945.3125,-597.65625,-68.84765625
6,1734037280673.6875,66.40625,-938.4765625,-502.9296875,72.75390625
7,1734037280677.5938,84.47265625,-663.57421875,-304.19921875,174.8046875
8,1734037280681.5,46.875,-488.76953125,-283.69140625,98.14453125
9,1734037280685.4062,12.20703125,-638.18359375,-458.984375,-5.37109375
10,1734037280689.3125,55.17578125,-1000,-749.51171875,137.20703125
11,1734037280693.2188,75.68359375,-813.96484375,-499.0234375,295.8984375
0,1734037280697.125,29.78515625,-5.859375,-3.41796875,230.95703125
1,1734037280701.0312,-43.45703125,-345.703125,-212.40234375,75.1953125
2,1734037280704.9375,-49.31640625,-612.79296875,-323.73046875,92.28515625
3,1734037280708.8438,19.04296875,192.3828125,77.63671875,264.6484375
4,1734037280712.75,33.69140625,416.015625,114.74609375,290.0390625
5,1734037280716.6562,-8.30078125,-383.7890625,-273.4375,126.953125
6,1734037280720.5625,-19.53125,-877.44140625,-422.36328125,58.10546875
7,1734037280724.4688,47.8515625,-356.4453125,-137.6953125,227.05078125
8,1734037280728.375,90.33203125,385.25390625,202.1484375,297.36328125
9,1734037280732.2812,82.51953125,-199.70703125,-234.86328125,182.6171875
10,1734037280736.1875,60.05859375,-831.54296875,-532.2265625,57.12890625
11,1734037280740.0938,112.3046875,146.97265625,75.68359375,157.2265625
0,1734037280744,170.41015625,641.6015625,218.75,275.390625
1,1734037280747.9062,124.51171875,72.75390625,-93.26171875,178.22265625
2,1734037280751.8125,72.265625,-284.66796875,-208.0078125,1.46484375
3,1734037280755.7188,97.16796875,225.5859375,73.2421875,70.80078125
4,1734037280759.625,147.94921875,536.1328125,163.57421875,259.27734375
5,1734037280763.5312,152.34375,86.9140625,42.96875,237.79296875
6,1734037280767.4375,70.80078125,-358.88671875,-160.64453125,58.59375
7,1734037280771.3438,55.6640625,-267.08984375,-188.4765625,53.7109375
8,1734037280775.25,127.44140625,81.54296875,35.15625,225.5859375
9,1734037280779.1562,136.71875,-364.2578125,-138.671875,257.32421875
10,1734037280783.0625,46.875,-219.23828125,-75.68359375,89.35546875
11,1734037280786.9688,10.25390625,394.04296875,145.5078125,13.18359375
0,1734037280790.875,59.08203125,136.23046875,-28.80859375,184.5703125
1,1734037280794.7812,69.82421875,-10.25390625,-64.453125,255.37109375
2,1734037280798.6875,19.53125,420.41015625,140.625,96.6796875
3,1734037280802.5938,-41.9921875,396.97265625,105.95703125,-70.80078125
4,1734037280806.5,-22.4609375,-119.62890625,-108.88671875,37.109375
5,1734037280810.4062,27.83203125,-791.50390625,-388.18359375,173.828125
6,1734037280814.3125,-7.8125,-336.42578125,-26.85546875,62.5
7,1734037280818.2188,-85.44921875,78.61328125,67.87109375,-130.37109375
8,1734037280822.125,-62.5,-233.88671875,-104.4921875,-92.7734375
9,1734037280826.0312,-18.06640625,125,56.15234375,68.359375
10,1734037280829.9375,-10.25390625,488.28125,173.828125,52.734375
11,1734037280833.8438,-41.50390625,263.18359375,39.0625,-117.67578125
0,1734037280837.75,-35.15625,-508.7890625,-341.796875,-109.86328125
1,1734037280841.6562,18.5546875,-394.53125,-167.48046875,73.73046875
2,1734037280845.5625,19.04296875,715.33203125,304.19921875,100.09765625
3,1734037280849.4688,-24.4140625,422.36328125,28.80859375,-30.76171875
4,1734037280853.375,-35.64453125,-207.51953125,-177.734375,-124.51171875
5,1734037280857.2812,14.6484375,-89.35546875,30.76171875,33.69140625
6,1734037280861.1875,28.3203125,176.7578125,130.859375,152.34375
7,1734037280865.0938,11.23046875,22.94921875,3.41796875,46.875
8,1734037280869,-10.25390625,-810.546875,-541.9921875,-80.078125
9,1734037280872.9062,18.06640625,-763.671875,-361.328125,20.5078125
10,1734037280876.8125,62.01171875,488.28125,282.71484375,142.578125
11,1734037280880.7188,49.8046875,557.6171875,112.79296875,104.00390625
0,1734037280884.625,-6.8359375,-206.54296875,-252.9296875,-56.640625
1,1734037280888.5312,14.6484375,-131.34765625,-103.515625,-41.50390625
2,1734037280892.4375,78.61328125,632.8125,273.4375,140.13671875
3,1734037280896.3438,76.66015625,305.17578125,-6.34765625,147.94921875
4,1734037280900.25,6.34765625,-430.17578125,-338.8671875,-31.25
5,1734037280904.1562,-19.04296875,-296.38671875,-235.83984375,-90.8203125
6,1734037280908.0625,41.50390625,80.078125,56.15234375,69.82421875
7,1734037280911.9688,79.58984375,-261.23046875,-114.2578125,146.484375
8,1734037280915.875,23.4375,-688.96484375,-337.40234375,-8.7890625
9,1734037280919.7812,-24.4140625,-44.921875,41.9921875,-158.69140625
10,1734037280923.6875,38.0859375,329.58984375,127.44140625,3.41796875
11,1734037280927.5938,89.84375,418.9453125,173.33984375,139.16015625
0,1734037280931.5,59.08203125,423.828125,144.53125,48.33984375
1,1734037280935.4062,11.71875,265.625,27.83203125,-104.4921875
2,1734037280939.3125,50.29296875,171.38671875,21.484375,-22.4609375
3,1734037280943.2188,117.1875,182.6171875,119.62890625,130.37109375
4,1734037280947.125,92.7734375,373.53515625,160.15625,70.3125
5,1734037280951.0312,35.64453125,14.16015625,-115.72265625,-94.7265625
6,1734037280954.9375,51.7578125,-274.90234375,-193.359375,-67.3828125
7,1734037280958.8438,103.02734375,-720.21484375,-363.28125,148.92578125
8,1734037280962.75,89.84375,-587.890625,-233.3984375,155.2734375
9,1734037280966.6562,19.53125,399.90234375,175.78125,-29.78515625
10,1734037280970.5625,20.01953125,-6.8359375,-89.35546875,-62.01171875
11,1734037280974.4688,70.3125,-61.03515625,-50.78125,110.3515625
0,1734037280978.375,68.359375,661.1328125,250.48828125,183.10546875
1,1734037280982.2812,34.1796875,675.78125,165.0390625,64.94140625
2,1734037280986.1875,-3.41796875,-150.390625,-177.24609375,-36.62109375
3,1734037280990.0938,31.73828125,-183.10546875,-88.37890625,92.28515625
4,1734037280994,56.640625,570.80078125,219.23828125,213.37890625
5,1734037280997.9062,18.06640625,345.703125,101.07421875,140.625
6,1734037281001.8125,4.8828125,-571.77734375,-400.87890625,-0.9765625
7,1734037281005.7188,21.484375,-823.2421875,-437.01171875,59.5703125
8,1734037281009.625,34.1796875,211.42578125,164.55078125,173.33984375
9,1734037281013.5312,30.2734375,678.22265625,185.05859375,136.71875
10,1734037281017.4375,-30.2734375,-252.44140625,-218.26171875,-31.73828125
11,1734037281021.3438,-25.87890625,-416.50390625,-135.25390625,-67.87109375
0,1734037281025.25,36.62109375,453.125,188.4765625,79.58984375
1,1734037281029.1562,43.9453125,552.734375,142.578125,94.7265625
2,1734037281033.0625,-10.25390625,-20.99609375,-126.46484375,-56.15234375
3,1734037281036.9688,-47.8515625,-231.4453125,-241.69921875,-130.37109375
4,1734037281040.875,-1.46484375,150.87890625,2.44140625,10.7421875
5,1734037281044.7812,31.25,74.21875,49.8046875,92.7734375
6,1734037281048.6875,-10.25390625,-480.95703125,-253.41796875,-16.6015625
7,1734037281052.5938,-84.47265625,-813.96484375,-432.12890625,-169.43359375
8,1734037281056.5,-59.08203125,-559.5703125,-238.76953125,-86.42578125
9,1734037281060.4062,-5.859375,-390.625,-229.00390625,40.52734375
10,1734037281064.3125,-45.41015625,-508.30078125,-341.796875,-33.69140625
11,1734037281068.2188,-108.3984375,-486.81640625,-350.5859375,-216.30859375
0,1734037281072.125,-91.30859375,-300.29296875,-252.44140625,-172.8515625
1,1734037281076.0312,-32.2265625,-341.30859375,-222.65625,12.6953125
2,1734037281079.9375,-28.80859375,-972.16796875,-691.89453125,21.97265625
3,1734037281083.8438,-110.3515625,-1000,-664.0625,-167.96875
4,1734037281087.75,-138.18359375,-685.546875,-351.07421875,-214.35546875
5,1734037281091.6562,-83.0078125,-772.4609375,-463.8671875,-12.20703125
6,1734037281095.5625,-83.0078125,-869.140625,-440.4296875,41.50390625
7,1734037281099.4688,-149.4140625,-559.5703125,-331.54296875,-117.67578125
8,1734037281103.375,-185.05859375,-619.140625,-456.0546875,-217.7734375
9,1734037281107.2812,-112.3046875,-799.8046875,-451.66015625,-58.59375
10,1734037281111.1875,-55.6640625,-731.4453125,-329.58984375,32.2265625
11,1734037281115.0938,-89.84375,-573.2421875,-345.21484375,-115.72265625
0,1734037281119,-145.99609375,-788.0859375,-532.71484375,-284.66796875
1,1734037281122.9062,-109.375,-991.2109375,-564.453125,-171.875
2,1734037281126.8125,-51.26953125,-572.75390625,-318.359375,-0.9765625
3,1734037281130.7188,-90.8203125,-384.27734375,-304.6875,-49.31640625
4,1734037281134.625,-150.390625,-803.22265625,-567.3828125,-220.21484375
5,1734037281138.5312,-122.0703125,-1000,-674.8046875,-182.6171875
6,1734037281142.4375,-56.15234375,-914.0625,-480.95703125,-25.87890625
7,1734037281146.3438,-54.6875,-894.04296875,-405.76171875,-45.41015625
8,1734037281150.25,-113.28125,-967.28515625,-638.18359375,-201.171875
9,1734037281154.1562,-116.69921875,-1000,-762.20703125,-200.68359375
10,1734037281158.0625,-77.63671875,-679.19921875,-395.5078125,10.7421875
11,1734037281161.9688,-65.91796875,-236.328125,-234.86328125,110.3515625
0,1734037281165.875,-93.75,-586.9140625,-497.0703125,14.16015625
1,1734037281169.7812,-113.28125,-1000,-628.41796875,-78.61328125
2,1734037281173.6875,-41.015625,-670.41015625,-381.8359375,87.40234375
3,1734037281177.5938,20.01953125,-225.09765625,-242.67578125,184.08203125
4,1734037281181.5,19.04296875,-552.734375,-479.4921875,44.921875
5,1734037281185.4062,-5.37109375,-1000,-729.00390625,-164.55078125
6,1734037281189.3125,18.5546875,-983.3984375,-511.23046875,-168.45703125
7,1734037281193.2188,75.1953125,-500.9765625,-251.953125,-81.54296875
8,1734037281197.125,107.421875,-558.59375,-501.46484375,-139.6484375
9,1734037281201.0312,70.3125,-1000,-737.3046875,-346.19140625
10,1734037281204.9375,77.63671875,-762.20703125,-412.109375,-388.18359375
11,1734037281208.8438,130.37109375,-331.54296875,-268.06640625,-209.47265625
0,1734037281212.75,127.9296875,-378.41796875,-325.1953125,-179.19921875
1,1734037281216.6562,73.73046875,-606.4453125,-423.33984375,-329.58984375
2,1734037281220.5625,52.734375,-659.66796875,-446.77734375,-357.421875
3,1734037281224.4688,102.05078125,-678.7109375,-380.859375,-169.43359375
4,1734037281228.375,108.3984375,-617.67578125,-339.84375,-90.33203125
5,1734037281232.2812,45.8984375,-736.328125,-477.5390625,-203.61328125
6,1734037281236.1875,-5.859375,-1000,-611.328125,-300.78125
7,1734037281240.0938,24.90234375,-892.08984375,-437.5,-150.87890625
8,1734037281244,65.91796875,-925.29296875,-578.61328125,9.765625
9,1734037281247.9062,32.71484375,-990.72265625,-646.97265625,-59.08203125
10,1734037281251.8125,-50.78125,-652.34375,-374.51171875,-205.56640625
11,1734037281255.7188,-36.1328125,-636.23046875,-413.57421875,-89.84375
0,1734037281259.625,18.5546875,-464.84375,-324.70703125,83.49609375
1,1734037281263.5312,-2.44140625,2.44140625,-49.8046875,66.40625
2,1734037281267.4375,-60.05859375,-262.6953125,-280.2734375,-44.43359375
3,1734037281271.3438,-63.96484375,-725.5859375,-446.2890625,-38.57421875
4,1734037281275.25,-17.578125,-526.3671875,-235.83984375,127.44140625
5,1734037281279.1562,-20.01953125,-312.5,-255.859375,180.17578125
6,1734037281283.0625,-80.56640625,-692.3828125,-420.41015625,58.59375
7,1734037281286.9688,-103.515625,-1000,-673.828125,25.390625
8,1734037281290.875,-39.55078125,-706.0546875,-438.96484375,182.6171875
9,1734037281294.7812,-14.6484375,-134.27734375,-41.50390625,251.46484375
10,1734037281298.6875,-65.4296875,-167.96875,-237.3046875,146.97265625
11,1734037281302.5938,-89.84375,-767.08984375,-635.25390625,63.4765625
0,1734037281306.5,-29.296875,-751.953125,-499.0234375,165.52734375
1,1734037281310.4062,18.06640625,82.03125,46.875,257.32421875
2,1734037281314.3125,13.18359375,47.8515625,-59.08203125,227.05078125
3,1734037281318.2188,-23.4375,-571.2890625,-378.90625,112.79296875
4,1734037281322.125,-0.48828125,-497.0703125,-313.96484375,142.578125
5,1734037281326.0312,46.875,-266.6015625,-250.9765625,275.390625
6,1734037281329.9375,34.66796875,-500.48828125,-343.26171875,282.71484375
7,1734037281333.8438,-14.6484375,-875.48828125,-553.7109375,189.453125
8,1734037281337.75,-26.3671875,-954.58984375,-501.46484375,134.765625
9,1734037281341.6562,29.296875,-253.90625,-90.33203125,216.30859375
10,1734037281345.5625,45.8984375,-25.87890625,-58.59375,253.90625
11,1734037281349.4688,-0.48828125,-642.578125,-431.15234375,93.26171875
0,1734037281353.375,-14.16015625,-565.4296875,-402.83203125,-46.38671875
1,1734037281357.2812,40.52734375,-12.20703125,-80.56640625,27.34375
2,1734037281361.1875,75.1953125,-167.48046875,-121.58203125,81.54296875
3,1734037281365.0938,50.78125,-993.1640625,-715.8203125,-21.97265625
4,1734037281369,-11.71875,-925.78125,-651.85546875,-157.71484375
5,1734037281372.9062,-19.53125,-526.85546875,-270.5078125,-86.9140625
6,1734037281376.8125,30.76171875,-709.9609375,-424.8046875,40.0390625
7,1734037281380.7188,17.578125,-716.30859375,-383.30078125,31.73828125
8,1734037281384.625,-62.01171875,-246.09375,-158.203125,-93.75
9,1734037281388.5312,-58.10546875,-95.703125,-161.62109375,-48.33984375
10,1734037281392.4375,-15.625,-168.9453125,-114.74609375,114.2578125
11,1734037281396.3438,-34.66796875,-121.58203125,-66.40625,113.76953125
0,1734037281400.25,-93.26171875,14.16015625,-67.3828125,-33.69140625
1,1734037281404.1562,-94.7265625,-188.96484375,-282.2265625,-67.87109375
2,1734037281408.0625,-23.92578125,-460.44921875,-289.0625,62.5
3,1734037281411.9688,-8.7890625,-103.515625,-4.8828125,83.0078125
4,1734037281415.875,-55.17578125,204.1015625,43.45703125,-36.62109375
5,1734037281419.7812,-60.05859375,-492.67578125,-347.65625,-121.09375
6,1734037281423.6875,4.8828125,-674.8046875,-316.40625,-16.6015625
7,1734037281427.5938,42.48046875,-266.11328125,-42.48046875,58.10546875
8,1734037281431.5,25.87890625,10.7421875,39.55078125,-41.9921875
9,1734037281435.4062,-6.8359375,-352.05078125,-311.5234375,-182.12890625
10,1734037281439.3125,35.15625,-590.33203125,-335.9375,-104.98046875
11,1734037281443.2188,95.703125,209.9609375,135.7421875,24.4140625
0,1734037281447.125,76.66015625,460.44921875,137.6953125,-1.46484375
1,1734037281451.0312,12.6953125,-306.640625,-284.1796875,-114.2578125
2,1734037281454.9375,14.16015625,-1000,-771.97265625,-70.3125
3,1734037281458.8438,46.875,-593.75,-284.1796875,83.984375
4,1734037281462.75,33.203125,352.05078125,167.96875,77.63671875
5,1734037281466.6562,-23.4375,-332.03125,-335.44921875,-33.203125
6,1734037281470.5625,-38.57421875,-854.00390625,-486.81640625,-38.0859375
7,1734037281474.4688,20.01953125,18.06640625,13.671875,83.0078125
8,1734037281478.375,30.2734375,699.70703125,233.3984375,128.90625
9,1734037281482.2812,-20.5078125,-99.12109375,-132.8125,52.734375
10,1734037281486.1875,-52.24609375,-625.9765625,-326.66015625,-51.26953125
11,1734037281490.0938,-2.9296875,112.3046875,-6.8359375,35.15625
0,1734037281494,30.2734375,391.11328125,137.6953125,131.8359375
1,1734037281497.9062,-17.578125,12.6953125,-78.61328125,30.2734375
2,1734037281501.8125,-66.89453125,-274.4140625,-275.390625,-145.01953125
3,1734037281505.7188,-41.9921875,-296.875,-267.578125,-112.3046875
4,1734037281509.625,8.7890625,-287.109375,-233.3984375,2.9296875
5,1734037281513.5312,-7.32421875,-619.140625,-368.65234375,-38.0859375
6,1734037281517.4375,-68.359375,-942.87109375,-443.359375,-216.30859375
7,1734037281521.3438,-66.89453125,-791.50390625,-381.34765625,-259.27734375
8,1734037281525.25,-7.32421875,-574.21875,-343.75,-119.140625
9,1734037281529.1562,5.37109375,-407.71484375,-215.8203125,-107.91015625
10,1734037281533.0625,-50.29296875,-281.73828125,-166.50390625,-264.6484375
11,1734037281536.9688,-77.63671875,-289.55078125,-303.22265625,-323.2421875
0,1734037281540.875,-18.5546875,-531.73828125,-411.1328125,-155.2734375
1,1734037281544.7812,-3.41796875,-669.921875,-423.33984375,-74.21875
2,1734037281548.6875,-54.19921875,-314.94140625,-266.11328125,-171.875
3,1734037281552.5938,-86.9140625,-465.8203125,-356.93359375,-279.296875
4,1734037281556.5,-40.52734375,-786.1328125,-512.6953125,-151.85546875
5,1734037281560.4062,2.9296875,-936.5234375,-633.30078125,-2.44140625
6,1734037281564.3125,-32.2265625,-828.125,-405.2734375,-82.03125
7,1734037281568.2188,-76.66015625,-930.17578125,-489.2578125,-223.6328125
8,1734037281572.125,-43.45703125,-1000,-669.921875,-153.80859375
9,1734037281576.0312,3.90625,-780.76171875,-524.4140625,6.34765625
10,1734037281579.9375,-8.30078125,-225.09765625,-213.8671875,-15.13671875
11,1734037281583.8438,-61.03515625,-486.328125,-430.6640625,-153.3203125
0,1734037281587.75,-60.05859375,-906.25,-535.15625,-168.45703125
1,1734037281591.6562,6.34765625,-506.8359375,-289.55078125,-0.9765625
2,1734037281595.5625,36.1328125,-157.2265625,-220.21484375,57.6171875
3,1734037281599.4688,2.9296875,-505.859375,-410.64453125,-81.54296875
4,1734037281603.375,-25.390625,-929.6875,-552.24609375,-161.62109375
5,1734037281607.2812,11.23046875,-838.37890625,-437.5,2.44140625
6,1734037281611.1875,45.41015625,-646.484375,-343.26171875,98.14453125
7,1734037281615.0938,40.0390625,-748.53515625,-420.41015625,-12.6953125
8,1734037281619,4.8828125,-1000,-761.71875,-121.09375
9,1734037281622.9062,29.78515625,-907.2265625,-649.90234375,-13.671875
10,1734037281626.8125,77.1484375,-81.0546875,14.6484375,104.4921875
11,1734037281630.7188,50.78125,-27.34375,-115.234375,46.38671875
0,1734037281634.625,-11.71875,-625.48828125,-493.1640625,-115.72265625
1,1734037281638.5312,-1.46484375,-342.28515625,-233.3984375,-87.40234375
2,1734037281642.4375,45.41015625,166.50390625,40.0390625,90.33203125
3,1734037281646.3438,42.48046875,15.13671875,-13.671875,108.3984375
4,1734037281650.25,-26.3671875,-439.94140625,-334.47265625,-60.05859375
5,1734037281654.1562,-32.2265625,-636.23046875,-438.4765625,-96.6796875
6,1734037281658.0625,40.0390625,-338.8671875,-181.640625,105.46875
7,1734037281661.9688,59.5703125,-493.65234375,-296.38671875,212.40234375
8,1734037281665.875,17.578125,-817.87109375,-503.90625,71.2890625
9,1734037281669.7812,-10.7421875,-231.4453125,-231.4453125,-23.4375
10,1734037281673.6875,51.26953125,117.1875,-19.53125,161.62109375
11,1734037281677.5938,71.77734375,-59.5703125,-50.78125,258.30078125
0,1734037281681.5,15.625,25.87890625,-17.578125,146.97265625
1,1734037281685.4062,-34.1796875,84.47265625,-80.078125,-19.53125
2,1734037281689.3125,5.859375,28.80859375,-85.44921875,67.87109375
3,1734037281693.2188,61.03515625,-61.5234375,-44.43359375,231.93359375
4,1734037281697.125,35.64453125,63.96484375,-20.5078125,185.546875
5,1734037281701.0312,-26.3671875,-195.80078125,-213.8671875,9.27734375
6,1734037281704.9375,-19.53125,-506.34765625,-325.68359375,20.01953125
7,1734037281708.8438,45.8984375,-789.0625,-430.6640625,212.890625
8,1734037281712.75,32.71484375,-447.265625,-215.8203125,193.359375
9,1734037281716.6562,-25.390625,187.01171875,33.69140625,-10.25390625
10,1734037281720.5625,-50.29296875,-380.859375,-395.5078125,-70.3125
11,1734037281724.4688,-28.80859375,-452.63671875,-272.4609375,69.82421875
0,1734037281728.375,-0.9765625,336.9140625,187.01171875,108.88671875
1,1734037281732.2812,-47.36328125,118.1640625,-47.8515625,-37.59765625
2,1734037281736.1875,-74.21875,-821.2890625,-541.015625,-149.90234375
3,1734037281740.0938,-27.34375,-604.98046875,-318.84765625,-26.85546875
4,1734037281744,-13.671875,227.5390625,127.9296875,77.63671875
5,1734037281747.9062,-53.7109375,-117.1875,-119.140625,-1.953125
6,1734037281751.8125,-114.2578125,-904.78515625,-611.328125,-141.11328125
7,1734037281755.7188,-109.86328125,-764.16015625,-520.99609375,-73.73046875
8,1734037281759.625,-78.61328125,22.4609375,45.41015625,45.8984375
9,1734037281763.5312,-83.49609375,166.015625,35.15625,12.6953125
10,1734037281767.4375,-126.953125,-550.29296875,-354.4921875,-156.25
11,1734037281771.3438,-119.62890625,-741.69921875,-410.15625,-199.21875
0,1734037281775.25,-43.9453125,-133.30078125,-94.23828125,-59.08203125
1,1734037281779.1562,-29.296875,-45.41015625,-38.57421875,-56.15234375
2,1734037281783.0625,-71.77734375,-625.9765625,-363.28125,-208.0078125
3,1734037281786.9688,-82.51953125,-977.5390625,-487.3046875,-252.9296875
4,1734037281790.875,-31.25,-718.75,-356.4453125,-72.75390625
5,1734037281794.7812,6.34765625,-587.40234375,-291.50390625,45.8984375
6,1734037281798.6875,-35.15625,-873.53515625,-612.79296875,-31.73828125
7,1734037281802.5938,-76.171875,-1000,-783.203125,-174.8046875
8,1734037281806.5,-38.57421875,-693.359375,-313.96484375,-104.4921875
9,1734037281810.4062,-0.48828125,-308.59375,-208.0078125,33.203125
10,1734037281814.3125,-32.2265625,-774.4140625,-511.23046875,0.9765625
11,1734037281818.2188,-116.69921875,-818.359375,-442.87109375,-131.34765625
0,1734037281822.125,-100.5859375,-397.94921875,-270.01953125,-50.29296875
1,1734037281826.0312,-37.109375,-470.703125,-326.66015625,145.5078125
2,1734037281829.9375,-45.8984375,-736.328125,-458.0078125,153.3203125
3,1734037281833.8438,-106.93359375,-519.04296875,-361.328125,5.37109375
4,1734037281837.75,-101.5625,-498.53515625,-346.6796875,-29.296875
5,1734037281841.6562,-14.16015625,-740.72265625,-489.2578125,98.6328125
6,1734037281845.5625,6.34765625,-867.1875,-534.66796875,80.56640625
7,1734037281849.4688,-26.3671875,-812.01171875,-403.3203125,-146.97265625
8,1734037281853.375,-31.25,-691.89453125,-355.95703125,-312.5
9,1734037281857.2812,45.41015625,-757.32421875,-496.09375,-234.86328125
10,1734037281861.1875,96.6796875,-759.765625,-462.890625,-205.078125
11,1734037281865.0938,72.265625,-167.96875,-155.2734375,-341.30859375
0,1734037281869,41.50390625,-398.4375,-386.71875,-457.51953125
1,1734037281872.9062,80.56640625,-596.19140625,-388.671875,-371.58203125
2,1734037281876.8125,130.859375,-140.13671875,-83.0078125,-237.3046875
3,1734037281880.7188,92.7734375,72.265625,0,-256.34765625
4,1734037281884.625,41.015625,-424.31640625,-338.8671875,-360.83984375
5,1734037281888.5312,54.19921875,-889.16015625,-495.1171875,-296.875
6,1734037281892.4375,87.890625,-643.5546875,-290.0390625,-111.81640625
7,1734037281896.3438,79.1015625,-477.5390625,-283.203125,-68.359375
8,1734037281900.25,10.7421875,-851.07421875,-544.921875,-153.3203125
9,1734037281904.1562,-43.9453125,-842.7734375,-557.12890625,-145.5078125
10,1734037281908.0625,-10.25390625,-231.93359375,-166.015625,15.625
11,1734037281911.9688,-0.48828125,123.046875,54.19921875,97.65625
0,1734037281915.875,-63.4765625,-317.87109375,-272.94921875,5.859375
1,1734037281919.7812,-94.7265625,-1000,-858.3984375,-44.43359375
2,1734037281923.6875,-69.82421875,-770.5078125,-538.57421875,64.453125
3,1734037281927.5938,-42.96875,-135.7421875,-93.75,150.87890625
4,1734037281931.5,-77.63671875,-481.4453125,-341.30859375,110.83984375
5,1734037281935.4062,-133.7890625,-975.5859375,-505.37109375,-2.9296875
6,1734037281939.3125,-95.703125,-776.85546875,-363.28125,73.2421875
7,1734037281943.2188,-55.17578125,-147.94921875,-85.44921875,206.0546875
8,1734037281947.125,-70.3125,-307.12890625,-161.62109375,187.01171875
9,1734037281951.0312,-113.28125,-723.6328125,-395.01953125,63.4765625
10,1734037281954.9375,-83.0078125,-426.26953125,-348.14453125,78.125
11,1734037281958.8438,-3.90625,-297.36328125,-255.859375,216.30859375
0,1734037281962.75,0.9765625,-647.94921875,-462.40234375,233.88671875
1,1734037281966.6562,-51.7578125,-925.29296875,-611.328125,88.37890625
2,1734037281970.5625,-47.36328125,-518.06640625,-333.0078125,14.16015625
3,1734037281974.4688,14.16015625,-229.98046875,-203.61328125,155.76171875
4,1734037281978.375,27.83203125,-229.4921875,-133.7890625,200.68359375
5,1734037281982.2812,-1.953125,-516.6015625,-322.265625,70.3125
6,1734037281986.1875,-35.15625,-904.78515625,-510.25390625,-41.9921875
7,1734037281990.0938,1.953125,-924.31640625,-451.66015625,63.96484375
8,1734037281994,38.57421875,-585.44921875,-247.55859375,143.5546875
9,1734037281997.9062,11.23046875,-183.10546875,-130.859375,33.69140625
10,1734037282001.8125,-35.15625,-346.19140625,-352.05078125,-132.8125
11,1734037282005.7188,-9.27734375,-596.6796875,-427.734375,-76.66015625
0,1734037282009.625,51.7578125,-947.265625,-644.53125,75.1953125
1,1734037282013.5312,25.87890625,-907.2265625,-563.4765625,5.37109375
2,1734037282017.4375,-44.921875,-587.40234375,-384.765625,-204.1015625
3,1734037282021.3438,-31.25,-777.34375,-520.01953125,-209.9609375
4,1734037282025.25,40.0390625,-654.78515625,-375,-57.6171875
5,1734037282029.1562,52.734375,-251.953125,-172.8515625,-60.546875
6,1734037282033.0625,9.765625,-652.83203125,-463.8671875,-206.54296875
7,1734037282036.9688,-29.78515625,-992.1875,-546.875,-258.7890625
8,1734037282040.875,-1.46484375,-424.8046875,-190.4296875,-84.9609375
9,1734037282044.7812,18.06640625,185.546875,63.96484375,27.34375
10,1734037282048.6875,-26.85546875,-17.08984375,-131.34765625,-65.4296875
11,1734037282052.5938,-75.68359375,-759.765625,-634.765625,-174.8046875
0,1734037282056.5,-37.109375,-833.984375,-583.984375,-27.83203125
1,1734037282060.4062,-20.5078125,0.48828125,-13.18359375,97.16796875
2,1734037282064.3125,-46.38671875,96.6796875,-52.24609375,29.78515625
3,1734037282068.2188,-78.61328125,-625.9765625,-448.73046875,-132.8125
4,1734037282072.125,-42.96875,-807.6171875,-456.0546875,-91.30859375
5,1734037282076.0312,38.0859375,-414.55078125,-261.23046875,81.54296875
6,1734037282079.9375,31.73828125,-340.33203125,-279.78515625,44.43359375
7,1734037282083.8438,-4.39453125,-838.8671875,-499.51171875,-126.953125
8,1734037282087.75,-0.48828125,-745.60546875,-441.40625,-124.51171875
9,1734037282091.6562,62.98828125,81.54296875,-54.19921875,61.5234375
10,1734037282095.5625,93.75,107.421875,-14.16015625,120.1171875
11,1734037282099.4688,64.94140625,-805.6640625,-648.4375,0
0,1734037282103.375,27.34375,-960.9375,-699.21875,-103.02734375
1,1734037282107.2812,61.5234375,-83.984375,-73.73046875,20.01953125
2,1734037282111.1875,108.3984375,123.53515625,-7.8125,129.8828125
3,1734037282115.0938,67.87109375,-109.375,-201.171875,10.25390625
4,1734037282119,7.8125,-210.9375,-322.265625,-131.8359375
5,1734037282122.9062,36.1328125,-365.234375,-332.51953125,-1.46484375
6,1734037282126.8125,59.5703125,-626.46484375,-412.109375,161.62109375
7,1734037282130.7188,12.6953125,-846.19140625,-518.5546875,106.93359375
8,1734037282134.625,-49.31640625,-430.6640625,-315.91796875,-93.26171875
9,1734037282138.5312,-44.921875,-291.9921875,-316.40625,-66.89453125
10,1734037282142.4375,-11.23046875,-553.7109375,-328.125,103.515625
11,1734037282146.3438,-18.06640625,-271.97265625,-68.359375,77.1484375
0,1734037282150.25,-62.98828125,-17.578125,-122.0703125,-109.86328125
1,1734037282154.1562,-75.68359375,-359.375,-389.16015625,-140.625
2,1734037282158.0625,-18.5546875,-350.09765625,-270.99609375,33.69140625
3,1734037282161.9688,-7.8125,-9.27734375,-27.34375,61.5234375
4,1734037282165.875,-57.6171875,-79.1015625,-171.875,-94.7265625
5,1734037282169.7812,-72.75390625,-772.94921875,-544.43359375,-173.828125
6,1734037282173.6875,-17.578125,-916.50390625,-440.91796875,0.48828125
7,1734037282177.5938,0.9765625,-558.59375,-264.6484375,80.078125
8,1734037282181.5,-27.34375,-601.5625,-375,-44.43359375
9,1734037282185.4062,-61.5234375,-880.37109375,-550.78125,-185.05859375
10,1734037282189.3125,-22.4609375,-1000,-749.0234375,-86.42578125
11,1734037282193.2188,9.765625,-854.4921875,-559.08203125,48.33984375
0,1734037282197.125,-28.3203125,-226.5625,-209.47265625,-42.48046875
1,1734037282201.0312,-69.3359375,-531.73828125,-454.58984375,-211.42578125
2,1734037282204.9375,-68.84765625,-769.53125,-488.28125,-204.58984375
3,1734037282208.8438,-14.6484375,-80.56640625,-123.046875,-40.52734375
4,1734037282212.75,4.8828125,84.47265625,-21.484375,-3.90625
5,1734037282216.6562,-34.1796875,-578.61328125,-470.21484375,-133.7890625
6,1734037282220.5625,-61.03515625,-1000,-664.0625,-171.875
7,1734037282224.4688,-28.3203125,-504.39453125,-257.8125,-31.73828125
8,1734037282228.375,4.39453125,114.74609375,-22.94921875,48.828125
9,1734037282232.2812,-36.62109375,-448.2421875,-324.21875,-54.6875
10,1734037282236.1875,-66.89453125,-864.74609375,-499.51171875,-166.9921875
11,1734037282240.0938,-9.765625,-554.6875,-319.3359375,-30.76171875
0,1734037282244,23.4375,-145.01953125,-102.5390625,92.7734375
1,1734037282247.9062,-12.6953125,-397.4609375,-265.625,9.765625
2,1734037282251.8125,-66.40625,-789.55078125,-453.61328125,-158.203125
3,1734037282255.7188,-37.59765625,-351.5625,-288.0859375,-100.5859375
4,1734037282259.625,25.87890625,-54.6875,-131.34765625,55.6640625
5,1734037282263.5312,34.66796875,-503.41796875,-290.52734375,28.80859375
6,1734037282267.4375,-24.90234375,-951.171875,-514.16015625,-130.859375
7,1734037282271.3438,-20.5078125,-894.04296875,-451.66015625,-131.34765625
8,1734037282275.25,44.921875,-561.5234375,-318.84765625,42.48046875
9,1734037282279.1562,57.12890625,-782.71484375,-536.1328125,103.515625
10,1734037282283.0625,3.90625,-844.7265625,-547.36328125,-38.0859375
11,1734037282286.9688,-22.94921875,-288.57421875,-269.53125,-117.67578125
0,1734037282290.875,34.66796875,-204.1015625,-262.6953125,56.15234375
1,1734037282294.7812,62.01171875,-269.04296875,-296.875,152.83203125
2,1734037282298.6875,12.20703125,-279.78515625,-292.96875,46.38671875
3,1734037282302.5938,-41.50390625,-250.48828125,-291.9921875,-70.80078125
4,1734037282306.5,7.8125,-521.484375,-368.65234375,55.17578125
5,1734037282310.4062,46.875,-780.2734375,-395.99609375,180.6640625
6,1734037282314.3125,3.41796875,-437.01171875,-237.3046875,97.65625
7,1734037282318.2188,-54.6875,-371.09375,-345.21484375,-52.734375
8,1734037282322.125,-36.1328125,-611.81640625,-375,-11.71875
9,1734037282326.0312,5.859375,-284.1796875,-67.3828125,108.88671875
10,1734037282329.9375,-17.08984375,224.609375,62.01171875,66.40625
11,1734037282333.8438,-74.21875,-67.87109375,-201.171875,-81.54296875
0,1734037282337.75,-60.05859375,-781.25,-597.16796875,-83.984375
1,1734037282341.6562,-2.44140625,-617.1875,-335.44921875,41.015625
2,1734037282345.5625,-7.8125,264.16015625,149.4140625,54.19921875
3,1734037282349.4688,-62.5,-142.578125,-192.3828125,-32.71484375
4,1734037282353.375,-72.265625,-842.7734375,-492.67578125,-82.03125
5,1734037282357.2812,-29.296875,-583.0078125,-308.59375,41.9921875
6,1734037282361.1875,-2.44140625,-263.18359375,-195.80078125,130.37109375
7,1734037282365.0938,-21.484375,-478.02734375,-314.453125,49.31640625
8,1734037282369,-67.87109375,-986.81640625,-703.61328125,-57.12890625
9,1734037282372.9062,-29.78515625,-814.94140625,-574.21875,32.71484375
10,1734037282376.8125,-0.48828125,67.87109375,40.0390625,123.53515625
11,1734037282380.7188,-32.71484375,-45.8984375,-134.765625,77.1484375
0,1734037282384.625,-91.796875,-710.9375,-527.83203125,-37.109375
1,1734037282388.5312,-88.37890625,-479.00390625,-327.1484375,-24.90234375
2,1734037282392.4375,-35.64453125,-18.5546875,-71.2890625,75.1953125
3,1734037282396.3438,-44.43359375,-251.46484375,-127.9296875,64.94140625
4,1734037282400.25,-100.09765625,-728.02734375,-427.734375,-80.56640625
5,1734037282404.1562,-102.05078125,-930.6640625,-547.36328125,-125.48828125
6,1734037282408.0625,-52.734375,-813.4765625,-362.79296875,8.7890625
7,1734037282411.9688,-37.109375,-781.73828125,-479.98046875,56.640625
8,1734037282415.875,-67.87109375,-1000,-715.33203125,-56.640625
9,1734037282419.7812,-97.65625,-793.45703125,-426.26953125,-160.15625
10,1734037282423.6875,-40.0390625,-378.90625,-273.92578125,-36.1328125
11,1734037282427.5938,-16.11328125,-414.0625,-310.546875,51.26953125
0,1734037282431.5,-67.3828125,-462.40234375,-318.84765625,-42.48046875
1,1734037282435.4062,-103.02734375,-541.50390625,-409.66796875,-159.66796875
2,1734037282439.3125,-62.5,-618.65234375,-391.6015625,-80.56640625
3,1734037282443.2188,-2.44140625,-528.3203125,-299.8046875,32.71484375
4,1734037282447.125,-23.92578125,-463.8671875,-313.96484375,-6.34765625
5,1734037282451.0312,-81.54296875,-814.94140625,-562.98828125,-158.69140625
6,1734037282454.9375,-48.828125,-1000,-537.59765625,-178.22265625
7,1734037282458.8438,14.16015625,-997.55859375,-604.00390625,-5.859375
8,1734037282462.75,-0.9765625,-799.8046875,-585.9375,9.27734375
9,1734037282466.6562,-62.98828125,-687.01171875,-398.92578125,-138.671875
10,1734037282470.5625,-70.80078125,-976.07421875,-561.5234375,-137.6953125
11,1734037282474.4688,0.9765625,-825.68359375,-534.1796875,36.1328125
0,1734037282478.375,27.34375,-236.328125,-156.25,84.47265625
1,1734037282482.2812,-23.92578125,-173.33984375,-224.609375,-44.43359375
2,1734037282486.1875,-74.70703125,-753.90625,-513.18359375,-126.46484375
3,1734037282490.0938,-20.01953125,-672.36328125,-375,-0.9765625
4,1734037282494,19.53125,-96.6796875,-123.046875,90.8203125
5,1734037282497.9062,-8.30078125,-464.35546875,-330.078125,50.29296875
6,1734037282501.8125,-53.22265625,-1000,-584.47265625,-38.57421875
7,1734037282505.7188,-6.8359375,-630.37109375,-371.58203125,7.8125
8,1734037282509.625,83.49609375,-44.921875,-79.1015625,126.953125
9,1734037282513.5312,66.40625,9.765625,-45.8984375,82.03125
10,1734037282517.4375,36.62109375,-609.86328125,-558.10546875,-72.75390625
11,1734037282521.3438,135.7421875,-1000,-711.42578125,-112.3046875
0,1734037282525.25,211.9140625,-440.4296875,-195.80078125,-71.2890625
1,1734037282529.1562,171.38671875,36.62109375,-65.91796875,-149.4140625
2,1734037282533.0625,93.26171875,-630.37109375,-434.08203125,-318.359375
3,1734037282536.9688,63.4765625,-784.1796875,-442.3828125,-391.11328125
4,1734037282540.875,107.421875,-196.2890625,-173.828125,-293.45703125
5,1734037282544.7812,112.79296875,-270.5078125,-232.91015625,-223.14453125
6,1734037282548.6875,63.96484375,-806.15234375,-525.87890625,-303.22265625
7,1734037282552.5938,8.30078125,-1000,-562.01171875,-410.64453125
8,1734037282556.5,47.36328125,-415.0390625,-200.68359375,-307.6171875
9,1734037282560.4062,92.28515625,-137.6953125,-179.6875,-173.33984375
10,1734037282564.3125,62.98828125,-553.22265625,-403.3203125,-209.47265625
11,1734037282568.2188,-4.8828125,-523.4375,-392.578125,-326.171875
0,1734037282572.125,-15.625,-205.078125,-208.49609375,-255.37109375
1,1734037282576.0312,27.83203125,-253.90625,-246.09375,-81.0546875
2,1734037282579.9375,8.7890625,-875,-557.12890625,-42.96875
3,1734037282583.8438,-78.61328125,-664.55078125,-367.1875,-150.390625
4,1734037282587.75,-106.93359375,-246.09375,-251.953125,-137.20703125
5,1734037282591.6562,-51.7578125,-547.36328125,-384.27734375,43.45703125
6,1734037282595.5625,-47.36328125,-788.57421875,-416.015625,94.23828125
7,1734037282599.4688,-117.1875,-389.16015625,-285.15625,-31.25
8,1734037282603.375,-134.765625,-254.39453125,-315.91796875,-116.69921875
9,1734037282607.2812,-60.546875,-559.5703125,-329.58984375,-21.97265625
10,1734037282611.1875,-35.64453125,-331.0546875,-68.359375,56.640625
11,1734037282615.0938,-83.984375,112.3046875,30.76171875,7.8125
0,1734037282619,-113.28125,-264.16015625,-283.203125,-74.21875
1,1734037282622.9062,-58.59375,-408.203125,-312.5,38.57421875
2,1734037282626.8125,-18.06640625,40.52734375,9.27734375,167.96875
3,1734037282630.7188,-40.52734375,265.13671875,81.0546875,119.140625
4,1734037282634.625,-92.28515625,-407.2265625,-308.10546875,-10.7421875
5,1734037282638.5312,-62.5,-953.125,-511.23046875,52.24609375
6,1734037282642.4375,-6.8359375,-601.07421875,-258.7890625,197.265625
7,1734037282646.3438,-23.4375,-227.05078125,-151.85546875,185.05859375
8,1734037282650.25,-72.75390625,-583.984375,-406.73828125,69.82421875
9,1734037282654.1562,-79.58984375,-701.171875,-397.4609375,49.31640625
10,1734037282658.0625,-21.97265625,28.80859375,13.671875,190.4296875
11,1734037282661.9688,-3.90625,479.98046875,200.1953125,245.1171875
0,1734037282665.875,-34.1796875,-66.89453125,-189.453125,142.578125
1,1734037282669.7812,-47.36328125,-1000,-718.26171875,102.5390625
2,1734037282673.6875,-11.23046875,-456.54296875,-190.91796875,188.96484375
3,1734037282677.5938,34.1796875,437.98828125,209.47265625,242.67578125
4,1734037282681.5,0,-10.25390625,-124.0234375,157.71484375
5,1734037282685.4062,-50.29296875,-851.07421875,-439.94140625,12.6953125
6,1734037282689.3125,0,-669.43359375,-303.22265625,61.03515625
7,1734037282693.2188,33.69140625,-128.90625,12.20703125,148.92578125
8,1734037282697.125,24.90234375,-455.56640625,-243.65234375,109.375
9,1734037282701.0312,-21.484375,-1000,-634.765625,-35.15625
10,1734037282704.9375,-19.53125,-385.7421875,-152.83203125,-73.2421875
11,1734037282708.8438,50.29296875,266.11328125,106.93359375,61.03515625
0,1734037282712.75,31.25,129.39453125,19.53125,71.2890625
1,1734037282716.6562,-33.203125,-136.23046875,-120.1171875,-62.98828125
2,1734037282720.5625,-63.96484375,-140.625,-204.1015625,-104.4921875
3,1734037282724.4688,-40.0390625,34.66796875,-39.55078125,20.5078125
4,1734037282728.375,-42.96875,-40.0390625,14.16015625,87.40234375
5,1734037282732.2812,-96.19140625,-430.6640625,-217.28515625,-6.34765625
6,1734037282736.1875,-146.484375,-801.26953125,-403.3203125,-96.6796875
7,1734037282740.0938,-111.328125,-581.54296875,-237.79296875,4.8828125
8,1734037282744,-59.5703125,-738.76953125,-436.5234375,123.53515625
9,1734037282747.9062,-91.796875,-1000,-554.6875,46.875
10,1734037282751.8125,-146.97265625,-447.75390625,-245.60546875,-122.0703125
11,1734037282755.7188,-100.09765625,-264.6484375,-209.47265625,-69.3359375
0,1734037282759.625,-39.0625,-177.24609375,-95.703125,41.9921875
1,1734037282763.5312,-31.25,292.48046875,123.53515625,2.9296875
2,1734037282767.4375,-58.59375,118.1640625,-73.2421875,-114.2578125
3,1734037282771.3438,-51.26953125,-357.421875,-260.7421875,-90.8203125
4,1734037282775.25,22.4609375,-119.62890625,-24.4140625,47.8515625
5,1734037282779.1562,45.8984375,136.23046875,91.30859375,69.82421875
6,1734037282783.0625,-6.34765625,-279.296875,-134.765625,-37.59765625
7,1734037282786.9688,-21.97265625,-851.07421875,-505.859375,-41.9921875
8,1734037282790.875,28.80859375,-620.60546875,-297.36328125,108.88671875
9,1734037282794.7812,39.0625,423.828125,238.76953125,165.52734375
10,1734037282798.6875,-8.7890625,492.67578125,117.67578125,93.26171875
11,1734037282802.5938,-57.12890625,-312.5,-225.5859375,21.484375
0,1734037282806.5,-11.23046875,-223.6328125,-55.17578125,132.32421875
1,1734037282810.4062,8.7890625,641.11328125,295.8984375,252.44140625
2,1734037282814.3125,-37.59765625,614.74609375,153.80859375,218.26171875
3,1734037282818.2188,-95.703125,-295.8984375,-190.4296875,125.9765625
4,1734037282822.125,-85.44921875,-215.33203125,-20.5078125,172.8515625
5,1734037282826.0312,-37.109375,337.40234375,215.8203125,282.71484375
6,1734037282829.9375,-60.05859375,237.3046875,170.8984375,261.23046875
7,1734037282833.8438,-116.69921875,-590.33203125,-329.1015625,161.1328125
8,1734037282837.75,-121.58203125,-679.6875,-303.22265625,135.25390625
9,1734037282841.6562,-71.2890625,626.953125,336.9140625,201.171875
10,1734037282845.5625,-59.5703125,719.7265625,214.35546875,219.7265625
11,1734037282849.4688,-113.28125,175.29296875,65.91796875,116.2109375
0,1734037282853.375,-137.20703125,291.50390625,149.4140625,43.45703125
1,1734037282857.2812,-74.70703125,705.078125,293.45703125,111.81640625
2,1734037282861.1875,-33.69140625,325.1953125,90.8203125,116.2109375
3,1734037282865.0938,-80.56640625,-111.328125,-41.50390625,-16.6015625
4,1734037282869,-122.0703125,199.70703125,135.25390625,-108.88671875
5,1734037282872.9062,-61.5234375,266.6015625,200.1953125,-33.69140625
6,1734037282876.8125,-4.8828125,-158.69140625,-5.859375,51.7578125
7,1734037282880.7188,-39.0625,-330.56640625,-101.07421875,10.7421875
8,1734037282884.625,-108.3984375,261.23046875,172.8515625,-117.1875
9,1734037282888.5312,-77.1484375,484.375,196.2890625,-80.56640625
10,1734037282892.4375,-4.8828125,114.74609375,95.703125,47.8515625
11,1734037282896.3438,-34.66796875,82.03125,86.9140625,30.2734375
0,1734037282900.25,-96.6796875,408.69140625,159.1796875,-68.359375
1,1734037282904.1562,-84.9609375,147.94921875,63.96484375,-91.30859375
2,1734037282908.0625,-22.94921875,154.78515625,146.97265625,-26.85546875
3,1734037282911.9688,-16.6015625,468.26171875,244.140625,10.25390625
4,1734037282915.875,-66.89453125,205.078125,69.82421875,-5.37109375
5,1734037282919.7812,-91.30859375,-389.6484375,-162.59765625,-11.71875
6,1734037282923.6875,-31.73828125,-789.0625,-395.5078125,31.25
7,1734037282927.5938,3.90625,-849.609375,-348.6328125,38.0859375
8,1734037282931.5,-60.05859375,-186.5234375,71.77734375,-56.640625
9,1734037282935.4062,-102.5390625,-235.83984375,-107.91015625,-175.78125
10,1734037282939.3125,-40.52734375,-554.19921875,-228.515625,-125.48828125
11,1734037282943.2188,5.859375,64.453125,105.46875,-56.15234375
0,1734037282947.125,-25.87890625,432.6171875,188.96484375,-114.2578125
1,1734037282951.0312,-72.265625,-343.75,-259.27734375,-192.3828125
2,1734037282954.9375,-49.8046875,-757.8125,-407.71484375,-173.828125
3,1734037282958.8438,-0.9765625,-0.48828125,76.171875,-106.93359375
4,1734037282962.75,2.44140625,246.09375,128.41796875,-104.00390625
5,1734037282966.6562,-47.8515625,-479.00390625,-369.62890625,-167.48046875
6,1734037282970.5625,-55.6640625,-1000,-648.4375,-195.3125
7,1734037282974.4688,-6.8359375,-615.234375,-238.76953125,-140.13671875
8,1734037282978.375,13.671875,-36.1328125,27.83203125,-94.23828125
9,1734037282982.2812,-49.8046875,-422.36328125,-281.73828125,-147.94921875
10,1734037282986.1875,-105.46875,-927.734375,-558.59375,-222.16796875
11,1734037282990.0938,-39.0625,-255.859375,-88.37890625,-172.8515625
0,1734037282994,3.90625,63.4765625,65.4296875,-85.9375
1,1734037282997.9062,-46.38671875,-358.3984375,-219.23828125,-95.703125
2,1734037283001.8125,-99.609375,-661.1328125,-393.5546875,-150.390625
3,1734037283005.7188,-66.40625,-422.36328125,-266.6015625,-85.44921875
4,1734037283009.625,-16.11328125,-220.21484375,-137.6953125,35.15625
5,1734037283013.5312,-26.3671875,-643.06640625,-301.7578125,47.8515625
6,1734037283017.4375,-86.42578125,-984.86328125,-477.5390625,-22.94921875
7,1734037283021.3438,-81.54296875,-924.8046875,-439.94140625,-10.7421875
8,1734037283025.25,-3.90625,-760.7421875,-325.68359375,71.77734375
9,1734037283029.1562,4.8828125,-880.37109375,-575.1953125,111.81640625
10,1734037283033.0625,-71.2890625,-1000,-696.2890625,36.62109375
11,1734037283036.9688,-87.890625,-634.765625,-314.453125,-27.34375
0,1734037283040.875,-26.85546875,-461.9140625,-320.3125,44.921875
1,1734037283044.7812,-19.53125,-447.265625,-332.03125,77.1484375
2,1734037283048.6875,-53.22265625,-275.390625,-240.72265625,26.3671875
3,1734037283052.5938,-84.47265625,-471.6796875,-374.51171875,-17.578125
4,1734037283056.5,-26.3671875,-692.3828125,-359.86328125,29.78515625
5,1734037283060.4062,28.80859375,-797.8515625,-360.83984375,74.21875
6,1734037283064.3125,-7.8125,-768.5546875,-384.765625,32.2265625
7,1734037283068.2188,-68.84765625,-733.3984375,-371.58203125,-74.70703125
8,1734037283072.125,-16.6015625,-877.44140625,-550.78125,-58.10546875
9,1734037283076.0312,49.31640625,-797.8515625,-538.0859375,1.46484375
10,1734037283079.9375,21.484375,-229.98046875,-233.3984375,-55.17578125
11,1734037283083.8438,-40.52734375,-537.109375,-441.89453125,-145.5078125
0,1734037283087.75,-29.78515625,-981.93359375,-569.82421875,-155.2734375
1,1734037283091.6562,45.41015625,-551.26953125,-311.5234375,-74.70703125
2,1734037283095.5625,44.43359375,-143.06640625,-224.12109375,-48.33984375
3,1734037283099.4688,-25.87890625,-493.65234375,-400.390625,-122.0703125
4,1734037283103.375,-56.640625,-941.89453125,-541.015625,-168.9453125
5,1734037283107.2812,-3.90625,-908.69140625,-458.49609375,-102.5390625
6,1734037283111.1875,22.4609375,-760.25390625,-349.609375,-59.5703125
7,1734037283115.0938,-27.83203125,-816.89453125,-422.8515625,-93.75
8,1734037283119,-65.4296875,-1000,-759.765625,-122.0703125
9,1734037283122.9062,0,-824.70703125,-611.328125,-85.44921875
10,1734037283126.8125,31.25,-127.44140625,-121.09375,-60.546875
11,1734037283130.7188,-17.08984375,-261.23046875,-305.6640625,-79.58984375
0,1734037283134.625,-87.890625,-852.05078125,-553.7109375,-129.39453125
1,1734037283138.5312,-54.19921875,-529.78515625,-344.7265625,-79.1015625
2,1734037283142.4375,12.20703125,-310.05859375,-246.58203125,35.15625
3,1734037283146.3438,-20.01953125,-659.66796875,-426.7578125,53.22265625
4,1734037283150.25,-83.0078125,-932.6171875,-606.93359375,-22.94921875
5,1734037283154.1562,-93.26171875,-930.17578125,-500.9765625,-55.17578125
6,1734037283158.0625,-41.015625,-652.34375,-298.33984375,10.25390625
7,1734037283161.9688,-13.671875,-692.3828125,-435.546875,47.8515625
8,1734037283165.875,-78.125,-865.72265625,-583.984375,-0.9765625
9,1734037283169.7812,-117.1875,-488.28125,-331.0546875,-48.33984375
10,1734037283173.6875,-36.1328125,-154.296875,-164.0625,55.6640625
11,1734037283177.5938,-1.46484375,-173.828125,-164.55078125,142.08984375
0,1734037283181.5,-42.48046875,-248.53515625,-276.3671875,110.3515625
1,1734037283185.4062,-62.5,-317.87109375,-342.7734375,25.87890625
2,1734037283189.3125,-8.7890625,-301.26953125,-309.5703125,24.90234375
3,1734037283193.2188,33.69140625,-374.51171875,-286.62109375,28.3203125
4,1734037283197.125,19.04296875,-431.640625,-298.828125,-94.23828125
5,1734037283201.0312,-22.94921875,-721.19140625,-467.7734375,-237.3046875
6,1734037283204.9375,21.97265625,-878.41796875,-423.33984375,-298.828125
7,1734037283208.8438,96.6796875,-888.18359375,-542.48046875,-277.83203125
8,1734037283212.75,101.5625,-913.0859375,-561.5234375,-312.5
9,1734037283216.6562,52.734375,-449.70703125,-283.69140625,-442.3828125
10,1734037283220.5625,58.10546875,-543.45703125,-456.0546875,-455.56640625
11,1734037283224.4688,139.6484375,-631.8359375,-397.4609375,-351.5625
0,1734037283228.375,160.64453125,-3.41796875,8.7890625,-346.19140625
1,1734037283232.2812,100.5859375,-3.90625,-146.97265625,-407.2265625
2,1734037283236.1875,57.12890625,-687.01171875,-499.51171875,-430.17578125
3,1734037283240.0938,98.6328125,-603.02734375,-344.23828125,-360.83984375
4,1734037283244,120.1171875,0,-139.16015625,-277.83203125
5,1734037283247.9062,80.56640625,-402.83203125,-312.98828125,-251.46484375
6,1734037283251.8125,11.71875,-970.703125,-662.59765625,-249.51171875
7,1734037283255.7188,14.6484375,-976.07421875,-695.80078125,-167.48046875
8,1734037283259.625,34.66796875,-359.375,-179.6875,-98.14453125
9,1734037283263.5312,-9.765625,1.46484375,-150.390625,-83.49609375
10,1734037283267.4375,-101.5625,-625.48828125,-516.11328125,-114.2578125
11,1734037283271.3438,-102.05078125,-756.34765625,-432.12890625,-102.5390625
0,1734037283275.25,-35.15625,-187.98828125,-190.91796875,-12.20703125
1,1734037283279.1562,-51.26953125,-85.44921875,-245.1171875,21.484375
2,1734037283283.0625,-130.859375,-682.12890625,-519.53125,-34.66796875
3,1734037283286.9688,-166.50390625,-856.93359375,-469.7265625,-55.17578125
4,1734037283290.875,-110.83984375,-416.015625,-308.59375,22.4609375
5,1734037283294.7812,-86.9140625,-543.9453125,-382.8125,74.21875
6,1734037283298.6875,-146.97265625,-912.59765625,-582.51953125,58.10546875
7,1734037283302.5938,-187.01171875,-1000,-605.46875,9.27734375
8,1734037283306.5,-125.9765625,-614.2578125,-324.70703125,61.5234375
9,1734037283310.4062,-69.82421875,-338.8671875,-305.6640625,136.23046875
10,1734037283314.3125,-83.49609375,-859.375,-585.9375,131.8359375
11,1734037283318.2188,-155.2734375,-931.15234375,-512.6953125,45.41015625
0,1734037283322.125,-126.953125,-412.109375,-286.1328125,60.05859375
1,1734037283326.0312,-50.29296875,-372.55859375,-320.3125,151.85546875
2,1734037283329.9375,-69.3359375,-490.72265625,-385.25390625,154.296875
3,1734037283333.8438,-136.71875,-412.109375,-379.39453125,71.77734375
4,1734037283337.75,-112.79296875,-500.9765625,-358.3984375,64.453125
5,1734037283341.6562,-12.20703125,-727.5390625,-481.4453125,174.8046875
6,1734037283345.5625,-2.9296875,-886.23046875,-518.5546875,189.453125
7,1734037283349.4688,-83.49609375,-548.828125,-310.546875,77.63671875
8,1734037283353.375,-102.5390625,-445.80078125,-390.13671875,16.6015625
9,1734037283357.2812,-20.01953125,-617.67578125,-393.5546875,64.453125
10,1734037283361.1875,13.18359375,-340.33203125,-155.2734375,75.68359375
11,1734037283365.0938,-33.203125,-131.8359375,-190.91796875,5.37109375
0,1734037283369,-73.2421875,-760.25390625,-527.83203125,-80.078125
1,1734037283372.9062,-32.71484375,-958.0078125,-497.55859375,-72.265625
2,1734037283376.8125,-15.625,-378.90625,-150.390625,-51.7578125
3,1734037283380.7188,-51.7578125,-52.734375,-108.3984375,-136.23046875
4,1734037283384.625,-103.02734375,-481.93359375,-431.640625,-243.65234375
5,1734037283388.5312,-85.9375,-880.37109375,-476.07421875,-222.65625
6,1734037283392.4375,-43.45703125,-657.2265625,-308.59375,-168.9453125
7,1734037283396.3438,-70.80078125,-538.57421875,-348.14453125,-179.19921875
8,1734037283400.25,-142.08984375,-812.98828125,-488.76953125,-232.421875
9,1734037283404.1562,-152.34375,-1000,-712.40234375,-194.3359375
10,1734037283408.0625,-103.02734375,-731.93359375,-503.41796875,-84.9609375
11,1734037283411.9688,-101.5625,70.3125,35.15625,-61.03515625
0,1734037283415.875,-152.83203125,-315.4296875,-278.80859375,-102.05078125
1,1734037283419.7812,-184.08203125,-807.12890625,-532.71484375,-132.32421875
2,1734037283423.6875,-114.74609375,-427.24609375,-300.78125,-63.96484375
3,1734037283427.5938,-57.12890625,-123.53515625,-125.9765625,-22.94921875
4,1734037283431.5,-83.984375,-358.3984375,-295.41015625,-82.03125
5,1734037283435.4062,-119.140625,-1000,-648.4375,-168.9453125
6,1734037283439.3125,-57.6171875,-815.4296875,-385.7421875,-149.90234375
7,1734037283443.2188,11.23046875,-63.96484375,-8.30078125,-79.1015625
8,1734037283447.125,8.7890625,-319.3359375,-257.8125,-69.82421875
9,1734037283451.0312,-44.43359375,-987.79296875,-640.625,-132.8125
10,1734037283454.9375,-31.25,-433.10546875,-289.55078125,-136.71875
11,1734037283458.8438,38.57421875,65.4296875,-32.2265625,-44.43359375
0,1734037283462.75,31.73828125,-67.87109375,-94.7265625,-25.87890625
1,1734037283466.6562,-47.36328125,-332.51953125,-313.96484375,-88.37890625
2,1734037283470.5625,-54.6875,-307.6171875,-303.7109375,-84.47265625
3,1734037283474.4688,7.32421875,-96.6796875,-119.140625,14.16015625
4,1734037283478.375,4.39453125,-137.20703125,-105.46875,50.29296875
5,1734037283482.2812,-63.96484375,-489.74609375,-352.05078125,-11.71875
6,1734037283486.1875,-109.86328125,-884.27734375,-503.41796875,-41.015625
7,1734037283490.0938,-65.91796875,-692.3828125,-299.8046875,35.15625
8,1734037283494,-34.1796875,-763.671875,-498.53515625,107.91015625
9,1734037283497.9062,-72.75390625,-1000,-645.01953125,85.9375
10,1734037283501.8125,-137.6953125,-545.8984375,-295.8984375,0.9765625
11,1734037283505.7188,-95.21484375,-351.07421875,-319.82421875,41.015625
0,1734037283509.625,-39.0625,-210.44921875,-197.265625,110.83984375
1,1734037283513.5312,-51.7578125,181.15234375,77.1484375,84.9609375
2,1734037283517.4375,-81.54296875,-25.87890625,-136.71875,2.44140625
3,1734037283521.3438,-70.3125,-443.84765625,-337.40234375,1.46484375
4,1734037283525.25,-6.34765625,-270.01953125,-128.90625,67.3828125
5,1734037283529.1562,-4.8828125,-72.265625,-12.6953125,62.98828125
6,1734037283533.0625,-75.68359375,-484.86328125,-239.2578125,-24.90234375
7,1734037283536.9688,-68.359375,-883.7890625,-523.4375,-52.24609375
8,1734037283540.875,12.20703125,-953.61328125,-520.99609375,33.203125
9,1734037283544.7812,14.16015625,-75.68359375,31.73828125,21.97265625
10,1734037283548.6875,-32.71484375,320.3125,84.9609375,-41.50390625
11,1734037283552.5938,-50.78125,-325.1953125,-261.23046875,-72.75390625
0,1734037283556.5,-4.8828125,-102.05078125,-37.109375,-31.25
1,1734037283560.4062,42.96875,514.6484375,222.65625,21.97265625
2,1734037283564.3125,15.13671875,375,62.01171875,-8.30078125
3,1734037283568.2188,-58.10546875,-222.16796875,-216.796875,-92.7734375
4,1734037283572.125,-28.3203125,-107.91015625,-62.5,-59.5703125
5,1734037283576.0312,43.45703125,167.96875,106.4453125,32.2265625
6,1734037283579.9375,26.85546875,1.46484375,52.734375,18.5546875
7,1734037283583.8438,-34.66796875,-717.28515625,-450.1953125,-38.57421875
8,1734037283587.75,-35.15625,-710.9375,-405.2734375,-44.921875
9,1734037283591.6562,26.85546875,351.5625,200.68359375,12.20703125
10,1734037283595.5625,52.24609375,262.20703125,58.10546875,56.15234375
11,1734037283599.4688,-10.25390625,-466.30859375,-250.9765625,3.41796875
0,1734037283603.375,-46.38671875,-220.21484375,-81.0546875,-47.36328125
1,1734037283607.2812,27.83203125,494.62890625,215.33203125,20.99609375
2,1734037283611.1875,67.3828125,432.12890625,100.5859375,66.40625
3,1734037283615.0938,18.5546875,67.3828125,11.71875,1.953125
4,1734037283619,-26.85546875,13.671875,4.39453125,-72.265625
5,1734037283622.9062,40.0390625,105.95703125,98.14453125,-17.08984375
6,1734037283626.8125,91.30859375,-260.7421875,-105.46875,66.89453125
7,1734037283630.7188,40.0390625,-542.48046875,-246.09375,39.0625
8,1734037283634.625,-40.0390625,67.3828125,85.44921875,-58.59375
9,1734037283638.5312,-2.44140625,343.75,107.421875,-27.83203125
10,1734037283642.4375,68.359375,333.49609375,177.24609375,59.5703125
11,1734037283646.3438,32.2265625,449.70703125,197.75390625,45.8984375
0,1734037283650.25,-32.2265625,121.58203125,-57.12890625,-40.0390625
1,1734037283654.1562,-39.55078125,-94.7265625,-88.37890625,-51.7578125
2,1734037283658.0625,16.6015625,-67.3828125,-29.78515625,37.109375
3,1734037283661.9688,24.90234375,170.8984375,55.17578125,64.453125
4,1734037283665.875,-50.29296875,383.7890625,113.76953125,-16.6015625
5,1734037283669.7812,-90.33203125,-196.2890625,-201.66015625,-71.77734375
6,1734037283673.6875,-30.76171875,-700.68359375,-343.75,11.71875
7,1734037283677.5938,-9.765625,-510.25390625,-99.12109375,65.91796875
8,1734037283681.5,-76.171875,69.3359375,120.1171875,-4.39453125
9,1734037283685.4062,-125,-146.484375,-149.90234375,-65.91796875
10,1734037283689.3125,-69.3359375,-587.40234375,-338.8671875,-3.41796875
11,1734037283693.2188,-17.08984375,53.22265625,38.0859375,57.12890625
0,1734037283697.125,-54.6875,549.8046875,184.5703125,23.92578125
1,1734037283701.0312,-101.5625,-98.14453125,-172.8515625,-42.48046875
2,1734037283704.9375,-69.82421875,-532.2265625,-311.03515625,-11.23046875
3,1734037283708.8438,0,-46.38671875,35.64453125,58.10546875
4,1734037283712.75,9.27734375,344.7265625,147.94921875,74.21875
5,1734037283716.6562,-62.01171875,-375,-341.30859375,29.296875
6,1734037283720.5625,-67.3828125,-941.89453125,-554.6875,-3.41796875
7,1734037283724.4688,-13.18359375,-145.99609375,-17.08984375,38.57421875
8,1734037283728.375,7.32421875,458.0078125,195.3125,66.40625
9,1734037283732.2812,-31.73828125,-319.82421875,-308.59375,30.76171875
10,1734037283736.1875,-70.80078125,-859.86328125,-580.078125,-14.16015625
11,1734037283740.0938,1.46484375,-63.96484375,-40.0390625,32.2265625
0,1734037283744,43.45703125,302.734375,119.140625,76.171875
1,1734037283747.9062,-4.8828125,-50.29296875,-102.05078125,20.5078125
2,1734037283751.8125,-66.40625,-364.74609375,-308.59375,-56.640625
3,1734037283755.7188,-31.25,-106.93359375,-118.65234375,-30.2734375
4,1734037283759.625,22.4609375,132.32421875,55.6640625,28.80859375
5,1734037283763.5312,-3.90625,-314.453125,-190.91796875,0
6,1734037283767.4375,-75.1953125,-835.9375,-419.43359375,-96.6796875
7,1734037283771.3438,-75.68359375,-818.359375,-377.9296875,-104.98046875
8,1734037283775.25,-16.11328125,-519.53125,-241.2109375,-36.1328125
9,1734037283779.1562,-22.4609375,-782.2265625,-526.3671875,-14.6484375
10,1734037283783.0625,-105.95703125,-1000,-665.52734375,-96.6796875
11,1734037283786.9688,-125.48828125,-470.21484375,-243.1640625,-168.9453125
0,1734037283790.875,-48.828125,-156.25,-113.28125,-96.6796875
1,1734037283794.7812,-30.76171875,-107.421875,-78.61328125,-75.1953125
2,1734037283798.6875,-82.51953125,2.44140625,-45.41015625,-153.80859375
3,1734037283802.5938,-125,-183.10546875,-233.88671875,-190.91796875
4,1734037283806.5,-54.19921875,-334.9609375,-259.765625,-89.35546875
5,1734037283810.4062,-13.18359375,-461.9140625,-245.60546875,-7.8125
6,1734037283814.3125,-66.40625,-430.17578125,-273.4375,-29.78515625
7,1734037283818.2188,-120.1171875,-615.234375,-344.23828125,-85.44921875
8,1734037283822.125,-64.453125,-913.0859375,-527.83203125,-46.875
9,1734037283826.0312,4.39453125,-913.0859375,-536.1328125,17.578125
10,1734037283829.9375,-26.85546875,-181.640625,-33.203125,-27.34375
11,1734037283833.8438,-76.171875,-97.65625,-131.8359375,-76.66015625
0,1734037283837.75,-72.75390625,-538.0859375,-397.94921875,-38.57421875
1,1734037283841.6562,-15.625,-115.72265625,-43.45703125,63.96484375
2,1734037283845.5625,-3.90625,330.078125,124.51171875,129.8828125
3,1734037283849.4688,-70.80078125,-36.62109375,-153.80859375,87.40234375
4,1734037283853.375,-85.9375,-629.39453125,-424.8046875,59.5703125
5,1734037283857.2812,5.37109375,-540.0390625,-320.3125,137.20703125
6,1734037283861.1875,46.38671875,-273.4375,-240.234375,121.58203125
7,1734037283865.0938,-4.8828125,-559.08203125,-376.46484375,-12.6953125
8,1734037283869,-26.85546875,-788.0859375,-445.80078125,-152.83203125
9,1734037283872.9062,32.2265625,-332.03125,-217.28515625,-276.3671875
10,1734037283876.8125,87.890625,-75.68359375,-95.703125,-293.45703125
11,1734037283880.7188,79.1015625,-274.4140625,-239.74609375,-269.04296875
0,1734037283884.625,40.0390625,-923.828125,-744.62890625,-349.12109375
