index,unixTimestamp,TP9,AF7,AF8,TP10
0,1734037200822.125,0,0,-0.48828125,0
1,1734037200826.0312,-0.48828125,-0.48828125,-2.44140625,0
2,1734037200829.9375,-11.71875,-29.296875,23.4375,-6.8359375
3,1734037200833.8438,28.3203125,62.01171875,-100.09765625,15.13671875
4,1734037200837.75,-146.484375,-366.2109375,392.578125,-83.49609375
5,1734037200841.6562,-350.09765625,-995.1171875,192.3828125,-206.54296875
6,1734037200845.5625,-201.171875,-997.55859375,-638.671875,-162.109375
7,1734037200849.4688,-166.015625,-985.83984375,-332.51953125,-154.296875
8,1734037200853.375,-291.9921875,-1000,-128.90625,-182.6171875
9,1734037200857.2812,-353.02734375,-1000,-139.16015625,-184.08203125
10,1734037200861.1875,-254.8828125,-999.51171875,-138.671875,-156.73828125
11,1734037200865.0938,-149.90234375,-999.0234375,-109.375,-138.671875
0,1734037200869,-283.203125,-995.1171875,-97.16796875,-162.109375
1,1734037200872.9062,-377.9296875,-994.140625,-116.69921875,-163.0859375
2,1734037200876.8125,-264.16015625,-1000,-148.92578125,-132.8125
3,1734037200880.7188,-99.12109375,-995.1171875,-114.2578125,-105.46875
4,1734037200884.625,-194.3359375,-987.79296875,-114.2578125,-99.12109375
5,1734037200888.5312,-345.21484375,-999.0234375,-178.7109375,-108.3984375
6,1734037200892.4375,-267.578125,-993.65234375,-253.41796875,-96.19140625
7,1734037200896.3438,-105.95703125,-1000,-164.55078125,-84.9609375
8,1734037200900.25,-150.87890625,-831.0546875,-45.8984375,-109.375
9,1734037200904.1562,-331.0546875,-807.12890625,-95.703125,-124.51171875
10,1734037200908.0625,-324.70703125,-866.2109375,-91.796875,-110.83984375
11,1734037200911.9688,-156.25,-645.5078125,-69.82421875,-98.6328125
0,1734037200915.875,-80.078125,-605.95703125,-114.74609375,-104.00390625
1,1734037200919.7812,-208.984375,-796.38671875,-156.73828125,-94.7265625
2,1734037200923.6875,-257.32421875,-853.02734375,-145.01953125,-89.35546875
3,1734037200927.5938,-127.44140625,-680.6640625,-114.74609375,-85.9375
4,1734037200931.5,-17.578125,-753.90625,-117.67578125,-76.66015625
5,1734037200935.4062,-171.38671875,-949.21875,-171.38671875,-89.84375
6,1734037200939.3125,-284.66796875,-1000,-179.19921875,-75.68359375
7,1734037200943.2188,-180.17578125,-989.74609375,-148.4375,-62.98828125
8,1734037200947.125,-32.2265625,-982.91015625,-104.4921875,-62.01171875
9,1734037200951.0312,-115.72265625,-1000,-158.69140625,-58.10546875
10,1734037200954.9375,-256.34765625,-996.09375,-199.70703125,-64.453125
11,1734037200958.8438,-164.55078125,-662.109375,-87.40234375,-58.10546875
0,1734037200962.75,-7.8125,-533.69140625,-99.609375,-48.33984375
1,1734037200966.6562,-42.96875,-789.55078125,-113.76953125,-68.84765625
2,1734037200970.5625,-201.66015625,-706.54296875,-87.890625,-74.70703125
3,1734037200974.4688,-208.49609375,-572.265625,-116.2109375,-71.77734375
4,1734037200978.375,-84.9609375,-759.765625,-170.41015625,-63.4765625
5,1734037200982.2812,-32.71484375,-1000,-195.80078125,-25.390625
6,1734037200986.1875,-166.9921875,-988.28125,-174.31640625,-31.25
7,1734037200990.0938,-215.33203125,-942.87109375,-144.53125,-58.10546875
8,1734037200994,-92.7734375,-973.6328125,-126.46484375,-39.55078125
9,1734037200997.9062,14.16015625,-1000,-172.36328125,-17.578125
10,1734037201001.8125,-95.21484375,-857.421875,-102.05078125,-40.0390625
11,1734037201005.7188,-209.47265625,-558.59375,-66.40625,-85.9375
0,1734037201009.625,-139.6484375,-739.2578125,-108.3984375,-87.40234375
1,1734037201013.5312,-4.39453125,-805.17578125,-83.49609375,-48.33984375
2,1734037201017.4375,-58.10546875,-526.85546875,-107.91015625,-43.9453125
3,1734037201021.3438,-200.68359375,-455.078125,-151.85546875,-61.03515625
4,1734037201025.25,-175.78125,-749.0234375,-136.71875,-60.546875
5,1734037201029.1562,-10.25390625,-1000,-115.72265625,-49.31640625
6,1734037201033.0625,1.953125,-953.125,-104.98046875,-39.0625
7,1734037201036.9688,-164.55078125,-985.3515625,-97.65625,-47.8515625
8,1734037201040.875,-202.1484375,-989.74609375,-175.29296875,-45.8984375
9,1734037201044.7812,-39.0625,-999.0234375,-163.57421875,-15.625
10,1734037201048.6875,62.01171875,-904.78515625,-20.01953125,-8.7890625
11,1734037201052.5938,-139.16015625,-693.359375,-34.1796875,-56.15234375
0,1734037201056.5,-242.1875,-796.875,-103.02734375,-71.2890625
1,1734037201060.4062,-91.796875,-683.10546875,-76.171875,-29.296875
2,1734037201064.3125,32.2265625,-429.6875,-70.80078125,-5.37109375
3,1734037201068.2188,-120.1171875,-601.07421875,-123.53515625,-27.34375
4,1734037201072.125,-245.1171875,-812.98828125,-146.484375,-36.1328125
5,1734037201076.0312,-149.90234375,-919.921875,-156.73828125,-24.90234375
6,1734037201079.9375,17.578125,-934.5703125,-165.52734375,-16.6015625
7,1734037201083.8438,-36.1328125,-899.4140625,-158.203125,-40.52734375
8,1734037201087.75,-253.90625,-969.23828125,-129.39453125,-69.82421875
9,1734037201091.6562,-202.63671875,-737.3046875,-61.5234375,-56.640625
10,1734037201095.5625,-12.20703125,-516.11328125,-87.890625,-30.76171875
11,1734037201099.4688,-31.25,-715.8203125,-124.51171875,-26.85546875
0,1734037201103.375,-210.44921875,-995.1171875,-149.4140625,-72.265625
1,1734037201107.2812,-211.42578125,-795.8984375,-105.46875,-80.56640625
2,1734037201111.1875,-58.10546875,-519.53125,-83.984375,-56.15234375
3,1734037201115.0938,-9.27734375,-767.578125,-188.96484375,-50.78125
4,1734037201119,-157.71484375,-968.75,-196.2890625,-39.55078125
5,1734037201122.9062,-227.5390625,-938.4765625,-131.8359375,-42.48046875
6,1734037201126.8125,-106.4453125,-983.3984375,-127.9296875,-49.31640625
7,1734037201130.7188,38.0859375,-1000,-195.3125,-23.4375
8,1734037201134.625,-45.8984375,-986.328125,-175.29296875,-32.71484375
9,1734037201138.5312,-142.08984375,-656.73828125,-25.390625,-61.5234375
10,1734037201142.4375,-74.70703125,-493.1640625,-54.6875,-44.921875
11,1734037201146.3438,29.296875,-763.671875,-98.6328125,-29.78515625
0,1734037201150.25,-5.859375,-689.453125,-93.75,-35.15625
1,1734037201154.1562,-138.671875,-489.74609375,-111.81640625,-39.0625
2,1734037201158.0625,-149.4140625,-683.59375,-146.484375,-39.55078125
3,1734037201161.9688,-20.5078125,-859.375,-161.1328125,-35.15625
4,1734037201165.875,17.578125,-706.0546875,-122.0703125,-30.76171875
5,1734037201169.7812,-177.24609375,-852.5390625,-130.37109375,-66.40625
6,1734037201173.6875,-271.97265625,-1000,-143.06640625,-98.6328125
7,1734037201177.5938,-147.94921875,-990.72265625,-147.4609375,-64.453125
8,1734037201181.5,-17.08984375,-798.33984375,-71.77734375,-32.71484375
9,1734037201185.4062,-115.72265625,-502.44140625,-53.7109375,-42.48046875
10,1734037201189.3125,-179.19921875,-700.68359375,-131.34765625,-34.1796875
11,1734037201193.2188,-96.6796875,-840.33203125,-149.4140625,-41.015625
0,1734037201197.125,19.53125,-581.54296875,-103.515625,-56.640625
1,1734037201201.0312,-49.31640625,-520.5078125,-93.26171875,-50.78125
2,1734037201204.9375,-175.29296875,-758.7890625,-152.83203125,-52.24609375
3,1734037201208.8438,-89.35546875,-783.69140625,-164.0625,-34.66796875
4,1734037201212.75,83.984375,-652.34375,-113.28125,12.20703125
5,1734037201216.6562,28.3203125,-926.7578125,-106.93359375,-18.06640625
6,1734037201220.5625,-165.52734375,-1000,-149.90234375,-59.5703125
7,1734037201224.4688,-143.06640625,-970.703125,-130.859375,-45.8984375
8,1734037201228.375,20.99609375,-951.171875,-91.30859375,-34.1796875
9,1734037201232.2812,98.6328125,-947.75390625,-110.3515625,-36.1328125
10,1734037201236.1875,-53.22265625,-948.73046875,-174.31640625,-26.3671875
11,1734037201240.0938,-142.578125,-1000,-182.6171875,-24.90234375
0,1734037201244,-2.9296875,-775.87890625,-49.31640625,-37.59765625
1,1734037201247.9062,115.234375,-551.7578125,-63.96484375,-16.11328125
2,1734037201251.8125,-13.671875,-791.50390625,-147.4609375,-14.6484375
3,1734037201255.7188,-115.72265625,-608.3984375,-108.3984375,-31.73828125
4,1734037201259.625,-44.43359375,-455.078125,-88.37890625,-57.12890625
5,1734037201263.5312,74.21875,-854.98046875,-152.34375,-46.38671875
6,1734037201267.4375,8.30078125,-967.7734375,-180.6640625,-38.57421875
7,1734037201271.3438,-142.08984375,-787.59765625,-106.4453125,-58.59375
8,1734037201275.25,-66.40625,-719.23828125,-67.87109375,-33.69140625
9,1734037201279.1562,98.6328125,-770.5078125,-132.8125,-4.39453125
10,1734037201283.0625,75.1953125,-841.30859375,-130.37109375,-10.25390625
11,1734037201286.9688,-91.796875,-537.59765625,-47.8515625,-34.1796875
0,1734037201290.875,-107.421875,-367.1875,-76.171875,-41.9921875
1,1734037201294.7812,43.9453125,-630.859375,-119.62890625,-16.6015625
2,1734037201298.6875,105.95703125,-755.37109375,-124.0234375,0
3,1734037201302.5938,-49.8046875,-454.58984375,-104.98046875,-16.6015625
4,1734037201306.5,-104.98046875,-485.83984375,-106.93359375,-32.2265625
5,1734037201310.4062,-7.32421875,-827.63671875,-148.4375,-40.52734375
6,1734037201314.3125,94.7265625,-989.74609375,-142.578125,-31.25
7,1734037201318.2188,-51.7578125,-941.89453125,-114.2578125,-49.31640625
8,1734037201322.125,-179.19921875,-879.39453125,-95.21484375,-58.59375
9,1734037201326.0312,-72.265625,-894.53125,-168.9453125,-31.25
10,1734037201329.9375,58.10546875,-1000,-220.21484375,-5.37109375
11,1734037201333.8438,10.7421875,-701.171875,-64.453125,-31.25
0,1734037201337.75,-114.74609375,-351.07421875,-62.01171875,-67.87109375
1,1734037201341.6562,-71.77734375,-554.19921875,-123.046875,-50.78125
2,1734037201345.5625,80.56640625,-459.47265625,-88.8671875,-18.06640625
3,1734037201349.4688,74.21875,-257.8125,-83.984375,-31.73828125
4,1734037201353.375,-103.515625,-416.015625,-102.5390625,-49.8046875
5,1734037201357.2812,-107.421875,-830.56640625,-132.32421875,-9.765625
6,1734037201361.1875,82.51953125,-906.73828125,-129.8828125,32.71484375
7,1734037201365.0938,174.31640625,-471.19140625,-110.83984375,29.296875
8,1734037201369,8.7890625,-504.8828125,-131.8359375,-7.8125
9,1734037201372.9062,-91.30859375,-850.5859375,-142.08984375,-46.875
10,1734037201376.8125,32.71484375,-452.63671875,-64.453125,-30.2734375
11,1734037201380.7188,182.12890625,-193.359375,-54.6875,-2.44140625
0,1734037201384.625,70.3125,-606.93359375,-112.79296875,-26.3671875
1,1734037201388.5312,-74.21875,-841.796875,-111.81640625,-54.6875
2,1734037201392.4375,19.04296875,-395.99609375,-65.4296875,-40.0390625
3,1734037201396.3438,169.921875,-212.40234375,-84.47265625,-4.8828125
4,1734037201400.25,115.234375,-610.3515625,-140.625,-6.34765625
5,1734037201404.1562,-38.0859375,-956.0546875,-161.62109375,-29.296875
6,1734037201408.0625,-28.80859375,-829.1015625,-131.34765625,-31.73828125
7,1734037201411.9688,87.890625,-791.50390625,-106.93359375,-29.78515625
8,1734037201415.875,110.3515625,-960.9375,-160.64453125,-17.08984375
9,1734037201419.7812,-47.36328125,-821.2890625,-129.8828125,-41.015625
10,1734037201423.6875,-81.54296875,-317.87109375,-46.875,-60.546875
11,1734037201427.5938,52.24609375,-250,-127.44140625,-30.76171875
0,1734037201431.5,140.13671875,-782.71484375,-223.14453125,-16.11328125
1,1734037201435.4062,20.99609375,-736.328125,-163.57421875,-20.5078125
2,1734037201439.3125,-62.01171875,-190.4296875,-88.37890625,-35.15625
3,1734037201443.2188,19.04296875,-467.28515625,-126.46484375,-42.96875
4,1734037201447.125,165.52734375,-780.76171875,-116.69921875,-4.39453125
5,1734037201451.0312,64.453125,-729.98046875,-73.2421875,-6.8359375
6,1734037201454.9375,-108.3984375,-696.2890625,-69.3359375,-51.26953125
7,1734037201458.8438,-47.8515625,-767.578125,-103.515625,-41.9921875
8,1734037201462.75,119.62890625,-881.34765625,-120.60546875,0
9,1734037201466.6562,109.375,-436.5234375,-55.17578125,-3.41796875
10,1734037201470.5625,-52.24609375,20.5078125,-52.24609375,-22.94921875
11,1734037201474.4688,-63.96484375,-326.66015625,-83.984375,-13.671875
0,1734037201478.375,103.02734375,-491.2109375,-71.77734375,3.90625
1,1734037201482.2812,153.3203125,-130.859375,-59.5703125,-2.44140625
2,1734037201486.1875,-25.87890625,-73.73046875,-77.63671875,-30.76171875
3,1734037201490.0938,-84.47265625,-409.66796875,-95.703125,-40.0390625
4,1734037201494,45.41015625,-490.234375,-93.75,-29.296875
5,1734037201497.9062,160.15625,-469.23828125,-115.72265625,-13.18359375
6,1734037201501.8125,35.64453125,-671.38671875,-113.76953125,-28.3203125
7,1734037201505.7188,-100.09765625,-839.35546875,-159.1796875,-43.9453125
8,1734037201509.625,-24.90234375,-998.53515625,-156.73828125,-45.41015625
9,1734037201513.5312,133.30078125,-587.890625,-19.04296875,-56.15234375
10,1734037201517.4375,54.19921875,-166.015625,-34.66796875,-56.15234375
11,1734037201521.3438,-114.74609375,-538.0859375,-100.09765625,-49.8046875
0,1734037201525.25,-60.546875,-473.6328125,-93.26171875,-41.9921875
1,1734037201529.1562,122.0703125,25.87890625,-106.93359375,-17.578125
2,1734037201533.0625,151.3671875,-147.4609375,-108.3984375,17.08984375
3,1734037201536.9688,-15.13671875,-398.92578125,-87.890625,0
4,1734037201540.875,-39.0625,-173.33984375,-73.73046875,-37.59765625
5,1734037201544.7812,111.328125,-245.60546875,-74.70703125,-27.83203125
6,1734037201548.6875,151.3671875,-528.80859375,-77.63671875,-28.3203125
7,1734037201552.5938,-33.203125,-810.05859375,-104.00390625,-41.50390625
8,1734037201556.5,-88.37890625,-640.13671875,-53.7109375,-33.203125
9,1734037201560.4062,69.3359375,55.6640625,-9.27734375,4.8828125
10,1734037201564.3125,184.5703125,-163.0859375,-92.7734375,30.76171875
11,1734037201568.2188,65.4296875,-631.34765625,-131.34765625,1.46484375
0,1734037201572.125,-50.78125,-71.2890625,-45.8984375,-18.06640625
1,1734037201576.0312,5.859375,205.078125,-38.0859375,-17.08984375
2,1734037201579.9375,144.04296875,-153.3203125,-81.0546875,-20.01953125
3,1734037201583.8438,81.54296875,-205.56640625,-70.3125,-28.80859375
4,1734037201587.75,-90.8203125,36.1328125,-75.68359375,-42.48046875
5,1734037201591.6562,-57.6171875,-215.8203125,-95.21484375,-36.62109375
6,1734037201595.5625,104.4921875,-686.5234375,-137.6953125,0.48828125
7,1734037201599.4688,100.09765625,-928.22265625,-123.53515625,0.9765625
8,1734037201603.375,-87.890625,-391.6015625,-3.41796875,-46.875
9,1734037201607.2812,-113.76953125,131.8359375,-10.25390625,-54.6875
10,1734037201611.1875,37.59765625,-527.34375,-143.06640625,-11.23046875
11,1734037201615.0938,120.1171875,-709.47265625,-107.421875,6.34765625
0,1734037201619,-17.578125,205.56640625,2.44140625,-35.64453125
1,1734037201622.9062,-91.30859375,212.890625,-57.6171875,-30.2734375
2,1734037201626.8125,-1.953125,-123.046875,-96.19140625,-8.30078125
3,1734037201630.7188,78.61328125,78.61328125,-79.58984375,-30.76171875
4,1734037201634.625,-26.3671875,293.9453125,-44.43359375,-48.33984375
5,1734037201638.5312,-193.359375,-102.05078125,-64.94140625,-56.15234375
6,1734037201642.4375,-131.34765625,-688.96484375,-94.23828125,-36.1328125
7,1734037201646.3438,75.68359375,-282.2265625,5.859375,-1.46484375
8,1734037201650.25,33.203125,346.6796875,56.15234375,-28.3203125
9,1734037201654.1562,-139.16015625,51.7578125,-8.30078125,-41.9921875
10,1734037201658.0625,-115.72265625,-114.74609375,-47.8515625,-15.13671875
11,1734037201661.9688,38.57421875,180.6640625,-46.875,-15.625
0,1734037201665.875,58.59375,-19.53125,-68.359375,-30.2734375
1,1734037201669.7812,-95.703125,-387.20703125,-81.54296875,-38.57421875
2,1734037201673.6875,-131.8359375,-225.5859375,-56.15234375,-43.9453125
3,1734037201677.5938,14.16015625,125,-49.8046875,-31.25
4,1734037201681.5,140.13671875,168.45703125,-57.12890625,-6.8359375
5,1734037201685.4062,-4.8828125,-463.8671875,-137.20703125,-7.8125
6,1734037201689.3125,-101.5625,-873.046875,-145.01953125,-4.8828125
7,1734037201693.2188,16.6015625,-445.80078125,-69.3359375,5.859375
8,1734037201697.125,151.3671875,-242.1875,-56.640625,5.859375
9,1734037201701.0312,52.24609375,-635.25390625,-109.86328125,5.859375
10,1734037201704.9375,-53.22265625,-593.26171875,-79.1015625,28.3203125
11,1734037201708.8438,12.6953125,109.86328125,-9.765625,26.85546875
0,1734037201712.75,119.140625,186.03515625,-35.15625,-2.44140625
1,1734037201716.6562,78.61328125,-562.98828125,-101.07421875,-12.20703125
2,1734037201720.5625,-62.5,-767.08984375,-81.0546875,-14.16015625
3,1734037201724.4688,-36.1328125,-141.11328125,14.6484375,-14.6484375
4,1734037201728.375,125,-79.58984375,-40.52734375,0.48828125
5,1734037201732.2812,168.9453125,-585.44921875,-114.74609375,7.32421875
6,1734037201736.1875,-11.71875,-642.08984375,-43.9453125,0.48828125
7,1734037201740.0938,-72.265625,92.7734375,1.46484375,-6.34765625
8,1734037201744,52.734375,-17.08984375,-73.73046875,4.8828125
9,1734037201747.9062,173.33984375,-469.23828125,-85.9375,19.04296875
10,1734037201751.8125,58.59375,-17.08984375,-13.671875,0.9765625
11,1734037201755.7188,-62.5,251.46484375,-20.5078125,-13.18359375
0,1734037201759.625,14.16015625,-146.97265625,-72.265625,-7.8125
1,1734037201763.5312,148.92578125,-259.27734375,-65.91796875,3.41796875
2,1734037201767.4375,69.3359375,57.6171875,-39.0625,-13.671875
3,1734037201771.3438,-97.16796875,135.25390625,-60.05859375,-31.73828125
4,1734037201775.25,-23.92578125,-229.4921875,-102.05078125,-17.08984375
5,1734037201779.1562,144.04296875,-634.27734375,-107.421875,1.46484375
6,1734037201783.0625,124.0234375,-550.78125,-73.73046875,-4.8828125
7,1734037201786.9688,-37.109375,-520.01953125,-66.89453125,-18.5546875
8,1734037201790.875,-74.21875,-741.69921875,-179.6875,5.37109375
9,1734037201794.7812,85.44921875,-1000,-233.3984375,41.50390625
10,1734037201798.6875,193.84765625,-582.03125,-15.625,32.71484375
11,1734037201802.5938,-8.30078125,-17.578125,46.38671875,-36.1328125
0,1734037201806.5,-121.58203125,-240.234375,-30.76171875,-63.4765625
1,1734037201810.4062,38.0859375,-148.4375,-30.2734375,-28.80859375
2,1734037201814.3125,177.24609375,55.17578125,-47.8515625,-4.8828125
3,1734037201818.2188,43.45703125,-124.51171875,-72.265625,-5.37109375
4,1734037201822.125,-115.234375,-405.76171875,-98.14453125,-16.11328125
5,1734037201826.0312,-61.03515625,-544.43359375,-113.28125,-23.4375
6,1734037201829.9375,110.3515625,-526.85546875,-65.4296875,-8.30078125
7,1734037201833.8438,50.29296875,-410.64453125,-28.80859375,-13.18359375
8,1734037201837.75,-149.4140625,-888.18359375,-101.5625,-33.69140625
9,1734037201841.6562,-116.69921875,-691.40625,-22.4609375,-21.97265625
10,1734037201845.5625,57.6171875,101.5625,24.90234375,-1.953125
11,1734037201849.4688,65.91796875,-261.23046875,-94.7265625,-2.44140625
0,1734037201853.375,-107.91015625,-514.16015625,-85.44921875,-22.4609375
1,1734037201857.2812,-145.5078125,3.41796875,-24.4140625,-46.875
2,1734037201861.1875,1.46484375,80.56640625,-61.5234375,-39.55078125
3,1734037201865.0938,82.51953125,-296.38671875,-96.19140625,-8.7890625
4,1734037201869,-83.49609375,-393.5546875,-86.42578125,-22.4609375
5,1734037201872.9062,-162.59765625,-379.8828125,-77.1484375,-23.92578125
6,1734037201876.8125,-33.203125,-513.18359375,-60.05859375,-12.20703125
7,1734037201880.7188,83.49609375,-778.3203125,-147.94921875,-18.06640625
8,1734037201884.625,-39.0625,-977.5390625,-168.9453125,-45.41015625
9,1734037201888.5312,-158.69140625,-316.40625,-19.53125,-79.1015625
10,1734037201892.4375,-75.1953125,-109.375,-21.97265625,-62.01171875
11,1734037201896.3438,79.1015625,-649.90234375,-37.59765625,-29.78515625
0,1734037201900.25,54.19921875,-429.6875,7.8125,-23.4375
1,1734037201904.1562,-101.5625,44.921875,-7.32421875,-52.734375
2,1734037201908.0625,-116.2109375,-126.46484375,-41.9921875,-65.91796875
3,1734037201911.9688,24.90234375,-362.3046875,-33.69140625,-53.7109375
4,1734037201915.875,69.82421875,-178.7109375,-25.87890625,-53.7109375
5,1734037201919.7812,-91.30859375,-308.10546875,-59.5703125,-56.15234375
6,1734037201923.6875,-128.90625,-642.08984375,-95.21484375,-53.22265625
7,1734037201927.5938,11.23046875,-849.609375,-109.86328125,-39.0625
8,1734037201931.5,119.140625,-421.875,-33.203125,-25.390625
9,1734037201935.4062,-27.34375,58.10546875,-28.80859375,-40.0390625
10,1734037201939.3125,-125.48828125,-272.94921875,-86.42578125,-36.62109375
11,1734037201943.2188,-0.9765625,-442.87109375,-62.01171875,-7.8125
0,1734037201947.125,135.25390625,-135.7421875,-13.671875,7.32421875
1,1734037201951.0312,25.87890625,-326.171875,-20.5078125,-15.13671875
2,1734037201954.9375,-126.46484375,-800.29296875,-73.2421875,-49.8046875
3,1734037201958.8438,-63.96484375,-692.87109375,-64.94140625,-39.55078125
4,1734037201962.75,103.515625,-204.58984375,-27.34375,-5.859375
5,1734037201966.6562,67.3828125,-416.9921875,-58.59375,-13.671875
6,1734037201970.5625,-120.1171875,-815.91796875,-119.140625,-35.64453125
7,1734037201974.4688,-116.69921875,-934.5703125,-96.6796875,-15.625
8,1734037201978.375,45.41015625,-488.28125,-5.37109375,0
9,1734037201982.2812,71.77734375,-125.9765625,-29.78515625,-6.34765625
10,1734037201986.1875,-129.39453125,-633.30078125,-96.19140625,-24.90234375
11,1734037201990.0938,-195.3125,-618.65234375,-62.98828125,-36.1328125
0,1734037201994,-42.96875,-50.78125,-12.20703125,-31.73828125
1,1734037201997.9062,75.1953125,-189.94140625,-82.03125,-11.71875
2,1734037202001.8125,-56.640625,-442.3828125,-105.46875,-22.4609375
3,1734037202005.7188,-165.52734375,-469.23828125,-45.41015625,-37.109375
4,1734037202009.625,-84.47265625,-438.4765625,-16.6015625,-19.53125
5,1734037202013.5312,46.875,-503.90625,-39.55078125,-9.765625
6,1734037202017.4375,-44.43359375,-951.66015625,-139.6484375,-20.99609375
7,1734037202021.3438,-174.31640625,-791.015625,-71.2890625,-27.34375
8,1734037202025.25,-94.7265625,-110.3515625,8.7890625,-16.6015625
9,1734037202029.1562,60.546875,-285.64453125,-85.9375,1.46484375
10,1734037202033.0625,40.0390625,-517.578125,-67.87109375,-10.25390625
11,1734037202036.9688,-154.296875,-162.59765625,-23.92578125,-54.19921875
0,1734037202040.875,-181.15234375,-54.19921875,-37.59765625,-50.78125
1,1734037202044.7812,-14.16015625,-408.69140625,-74.70703125,-2.9296875
2,1734037202048.6875,71.77734375,-528.80859375,-89.35546875,22.94921875
3,1734037202052.5938,-93.26171875,-167.96875,-51.7578125,2.9296875
4,1734037202056.5,-159.1796875,-248.53515625,-78.61328125,-11.71875
5,1734037202060.4062,-47.36328125,-781.25,-155.2734375,-9.765625
6,1734037202064.3125,69.82421875,-931.640625,-101.5625,14.6484375
7,1734037202068.2188,-18.5546875,-780.76171875,-48.33984375,12.20703125
8,1734037202072.125,-166.015625,-765.625,-64.94140625,-29.296875
9,1734037202076.0312,-102.5390625,-906.73828125,-124.0234375,-32.2265625
10,1734037202079.9375,30.2734375,-953.61328125,-100.09765625,-3.90625
11,1734037202083.8438,-29.296875,-479.00390625,6.8359375,-20.5078125
0,1734037202087.75,-204.58984375,-467.28515625,-48.33984375,-52.24609375
1,1734037202091.6562,-179.19921875,-587.40234375,-55.6640625,-54.19921875
2,1734037202095.5625,-15.13671875,-279.296875,-28.80859375,-24.90234375
3,1734037202099.4688,-3.41796875,-91.796875,-24.90234375,1.953125
4,1734037202103.375,-192.87109375,-244.140625,-48.828125,-34.1796875
5,1734037202107.2812,-249.51171875,-714.84375,-100.09765625,-53.22265625
6,1734037202111.1875,-73.2421875,-763.671875,-63.4765625,-24.90234375
7,1734037202115.0938,36.62109375,-326.66015625,-13.671875,-7.8125
8,1734037202119,-142.08984375,-454.1015625,-60.05859375,-42.48046875
9,1734037202122.9062,-263.18359375,-920.41015625,-97.65625,-55.17578125
10,1734037202126.8125,-113.76953125,-495.60546875,-5.37109375,-14.6484375
11,1734037202130.7188,43.45703125,-31.73828125,19.04296875,7.8125
0,1734037202134.625,-77.63671875,-492.67578125,-70.3125,0.9765625
1,1734037202138.5312,-228.02734375,-787.59765625,-82.51953125,-15.625
2,1734037202142.4375,-145.01953125,-230.95703125,-15.13671875,-2.9296875
3,1734037202146.3438,35.15625,-15.625,-45.41015625,36.62109375
4,1734037202150.25,-14.6484375,-422.36328125,-96.6796875,21.97265625
5,1734037202154.1562,-199.21875,-807.6171875,-76.171875,-19.04296875
6,1734037202158.0625,-199.70703125,-676.7578125,-37.59765625,-31.73828125
7,1734037202161.9688,-36.62109375,-649.90234375,-37.59765625,-21.97265625
8,1734037202165.875,-2.9296875,-875.48828125,-92.7734375,-5.859375
9,1734037202169.7812,-178.7109375,-964.84375,-110.3515625,-5.37109375
10,1734037202173.6875,-192.87109375,-586.9140625,6.34765625,-8.30078125
11,1734037202177.5938,-40.0390625,-475.5859375,3.41796875,1.46484375
0,1734037202181.5,63.96484375,-707.51953125,-52.24609375,5.37109375
1,1734037202185.4062,-70.80078125,-461.9140625,-43.45703125,-17.578125
2,1734037202189.3125,-159.1796875,-62.01171875,-40.52734375,-41.50390625
3,1734037202193.2188,-59.08203125,-215.8203125,-74.70703125,-22.94921875
4,1734037202197.125,53.22265625,-485.83984375,-86.42578125,-21.484375
5,1734037202201.0312,-21.484375,-590.8203125,-77.63671875,-34.66796875
6,1734037202204.9375,-155.76171875,-657.2265625,-84.9609375,-37.59765625
7,1734037202208.8438,-121.58203125,-710.44921875,-102.05078125,-42.96875
8,1734037202212.75,51.7578125,-865.72265625,-81.54296875,-25.390625
9,1734037202216.6562,51.26953125,-484.86328125,23.4375,-28.3203125
10,1734037202220.5625,-121.09375,-60.546875,19.53125,-47.8515625
11,1734037202224.4688,-110.3515625,-383.7890625,-62.98828125,-34.1796875
0,1734037202228.375,37.59765625,-520.01953125,-80.078125,-7.8125
1,1734037202232.2812,60.05859375,-501.953125,-69.82421875,0.9765625
2,1734037202236.1875,-100.5859375,-426.7578125,-39.55078125,-8.7890625
3,1734037202240.0938,-154.296875,-541.9921875,-76.66015625,-6.8359375
4,1734037202244,-8.7890625,-794.921875,-108.3984375,13.18359375
5,1734037202247.9062,90.33203125,-608.88671875,-100.09765625,15.625
6,1734037202251.8125,-68.359375,-733.88671875,-106.4453125,-5.37109375
7,1734037202255.7188,-191.40625,-895.99609375,-78.61328125,-33.203125
8,1734037202259.625,-83.0078125,-715.8203125,-54.19921875,-26.3671875
9,1734037202263.5312,80.56640625,-311.03515625,-34.66796875,-1.46484375
10,1734037202267.4375,2.44140625,-308.59375,-46.38671875,-12.6953125
11,1734037202271.3438,-171.875,-780.76171875,-149.4140625,-23.92578125
0,1734037202275.25,-132.8125,-912.59765625,-139.6484375,-30.2734375
1,1734037202279.1562,57.6171875,-428.22265625,-22.4609375,-20.99609375
2,1734037202283.0625,63.4765625,-401.3671875,-78.61328125,-4.8828125
3,1734037202286.9688,-128.90625,-816.40625,-128.41796875,-23.4375
4,1734037202290.875,-149.90234375,-803.22265625,-120.1171875,-35.64453125
5,1734037202294.7812,18.5546875,-759.765625,-116.2109375,-4.39453125
6,1734037202298.6875,85.44921875,-973.6328125,-140.625,13.18359375
7,1734037202302.5938,-83.0078125,-964.35546875,-155.76171875,-12.6953125
8,1734037202306.5,-166.015625,-625.9765625,-65.91796875,-32.2265625
9,1734037202310.4062,-23.92578125,-286.1328125,-12.6953125,-11.71875
10,1734037202314.3125,105.46875,-573.73046875,-88.8671875,12.6953125
11,1734037202318.2188,-26.85546875,-950.1953125,-110.83984375,5.37109375
0,1734037202322.125,-126.953125,-609.375,-26.3671875,-0.48828125
1,1734037202326.0312,-44.921875,-299.8046875,-52.24609375,18.06640625
2,1734037202329.9375,84.9609375,-601.5625,-108.88671875,31.25
3,1734037202333.8438,9.765625,-704.1015625,-76.66015625,4.8828125
4,1734037202337.75,-172.8515625,-438.96484375,-66.89453125,-40.0390625
5,1734037202341.6562,-129.8828125,-766.11328125,-96.6796875,-25.87890625
6,1734037202345.5625,16.11328125,-1000,-125.48828125,7.8125
7,1734037202349.4688,22.94921875,-938.4765625,-102.5390625,-2.44140625
8,1734037202353.375,-118.65234375,-907.2265625,-53.22265625,-22.94921875
9,1734037202357.2812,-149.90234375,-690.4296875,-67.3828125,-26.3671875
10,1734037202361.1875,-41.015625,-789.0625,-117.1875,-16.11328125
11,1734037202365.0938,41.9921875,-857.91015625,-79.58984375,-14.16015625
0,1734037202369,-67.87109375,-343.75,33.69140625,-41.015625
1,1734037202372.9062,-124.0234375,-353.515625,-33.69140625,-43.9453125
2,1734037202376.8125,-33.203125,-670.8984375,-90.33203125,-30.76171875
3,1734037202380.7188,83.49609375,-535.64453125,-81.0546875,-13.671875
4,1734037202384.625,8.7890625,-354.98046875,-94.7265625,-9.27734375
5,1734037202388.5312,-119.140625,-724.609375,-149.90234375,-25.390625
6,1734037202392.4375,-42.96875,-1000,-189.453125,-18.5546875
7,1734037202396.3438,132.32421875,-607.91015625,-108.88671875,11.71875
8,1734037202400.25,105.95703125,-463.37890625,-71.77734375,0.9765625
9,1734037202404.1562,-63.4765625,-874.51171875,-143.06640625,-6.8359375
10,1734037202408.0625,-34.66796875,-816.40625,-123.53515625,12.6953125
11,1734037202411.9688,127.9296875,-395.99609375,-33.203125,7.8125
0,1734037202415.875,132.32421875,-270.01953125,-53.22265625,-13.671875
1,1734037202419.7812,-82.51953125,-586.9140625,-113.28125,-53.22265625
2,1734037202423.6875,-125.48828125,-687.01171875,-97.16796875,-58.10546875
3,1734037202427.5938,37.59765625,-320.3125,-48.828125,-23.92578125
4,1734037202431.5,121.58203125,-341.796875,-100.09765625,-18.5546875
5,1734037202435.4062,-14.16015625,-757.32421875,-183.10546875,-28.3203125
6,1734037202439.3125,-88.8671875,-897.4609375,-127.44140625,-27.34375
7,1734037202443.2188,-2.9296875,-754.8828125,-65.91796875,-37.109375
8,1734037202447.125,123.53515625,-716.30859375,-68.84765625,-34.66796875
9,1734037202451.0312,50.29296875,-875.48828125,-150.390625,-32.2265625
10,1734037202454.9375,-87.40234375,-841.796875,-147.94921875,-29.78515625
11,1734037202458.8438,-32.71484375,-542.96875,-39.0625,-37.59765625
0,1734037202462.75,119.62890625,-399.4140625,-60.546875,-28.3203125
1,1734037202466.6562,110.3515625,-647.94921875,-82.51953125,-17.578125
2,1734037202470.5625,-30.76171875,-589.35546875,-65.91796875,-20.99609375
3,1734037202474.4688,-0.9765625,-171.38671875,-96.19140625,-9.765625
4,1734037202478.375,149.4140625,-280.2734375,-134.27734375,3.90625
5,1734037202482.2812,161.1328125,-745.60546875,-137.6953125,1.46484375
6,1734037202486.1875,-10.7421875,-857.421875,-108.88671875,-22.94921875
7,1734037202490.0938,-67.87109375,-402.83203125,-75.68359375,-29.296875
8,1734037202494,48.828125,-396.97265625,-122.0703125,-12.6953125
9,1734037202497.9062,140.13671875,-796.875,-139.16015625,0.9765625
10,1734037202501.8125,35.15625,-413.0859375,-24.90234375,-2.9296875
11,1734037202505.7188,-66.89453125,-99.609375,-45.8984375,-7.8125
0,1734037202509.625,-7.8125,-494.140625,-115.234375,-14.6484375
1,1734037202513.5312,138.671875,-745.1171875,-86.42578125,-5.859375
2,1734037202517.4375,91.30859375,-503.41796875,-46.875,-4.8828125
3,1734037202521.3438,-78.125,-149.4140625,-26.3671875,-35.64453125
4,1734037202525.25,-63.4765625,-508.7890625,-106.4453125,-33.69140625
5,1734037202529.1562,94.7265625,-976.07421875,-134.27734375,-8.30078125
6,1734037202533.0625,82.51953125,-724.609375,-87.40234375,-27.83203125
7,1734037202536.9688,-100.5859375,-639.16015625,-81.54296875,-54.6875
8,1734037202540.875,-112.3046875,-851.5625,-133.30078125,-50.78125
9,1734037202544.7812,40.52734375,-960.44921875,-148.4375,-27.83203125
10,1734037202548.6875,133.30078125,-387.20703125,-37.59765625,-28.3203125
11,1734037202552.5938,-15.625,-90.33203125,-68.84765625,-54.6875
0,1734037202556.5,-105.46875,-354.98046875,-109.375,-41.015625
1,1734037202560.4062,21.484375,-250.48828125,-108.88671875,-7.32421875
2,1734037202564.3125,163.57421875,-48.828125,-129.39453125,8.30078125
3,1734037202568.2188,43.9453125,-242.67578125,-120.60546875,0.48828125
4,1734037202572.125,-103.02734375,-540.0390625,-109.86328125,-13.18359375
5,1734037202576.0312,-2.9296875,-544.43359375,-107.421875,2.9296875
6,1734037202579.9375,139.6484375,-558.10546875,-101.07421875,25.87890625
7,1734037202583.8438,74.21875,-573.73046875,-100.09765625,20.99609375
8,1734037202587.75,-82.03125,-913.57421875,-166.015625,-0.9765625
9,1734037202591.6562,-31.25,-696.77734375,-87.890625,-0.9765625
10,1734037202595.5625,151.3671875,53.22265625,-17.578125,31.73828125
11,1734037202599.4688,147.4609375,-206.0546875,-113.28125,32.71484375
0,1734037202603.375,-23.92578125,-442.87109375,-137.6953125,-0.48828125
1,1734037202607.2812,-49.8046875,-68.84765625,-93.75,-12.20703125
2,1734037202611.1875,62.98828125,28.80859375,-86.42578125,-7.8125
3,1734037202615.0938,125,-329.58984375,-104.00390625,-2.9296875
4,1734037202619,-13.671875,-437.01171875,-108.3984375,-25.87890625
5,1734037202622.9062,-86.9140625,-437.01171875,-115.72265625,-46.875
6,1734037202626.8125,45.41015625,-621.09375,-115.234375,-29.296875
7,1734037202630.7188,170.41015625,-802.734375,-157.71484375,0.9765625
8,1734037202634.625,55.6640625,-890.625,-134.27734375,-10.7421875
9,1734037202638.5312,-79.1015625,-436.03515625,-76.171875,-39.0625
10,1734037202642.4375,2.44140625,-29.78515625,-76.171875,-21.97265625
11,1734037202646.3438,127.9296875,-544.921875,-166.50390625,2.44140625
0,1734037202650.25,43.45703125,-1000,-194.82421875,-21.97265625
1,1734037202654.1562,-91.796875,-322.75390625,-46.875,-56.15234375
2,1734037202658.0625,-64.94140625,-50.78125,-59.5703125,-53.22265625
3,1734037202661.9688,82.03125,-315.91796875,-96.19140625,-17.08984375
4,1734037202665.875,125,-170.41015625,-59.08203125,-7.8125
5,1734037202669.7812,-35.15625,-266.6015625,-61.5234375,-44.43359375
6,1734037202673.6875,-74.70703125,-556.15234375,-92.7734375,-41.015625
7,1734037202677.5938,70.3125,-774.90234375,-125.48828125,1.46484375
8,1734037202681.5,162.59765625,-471.19140625,-70.3125,14.6484375
9,1734037202685.4062,27.34375,-138.18359375,-72.265625,-13.18359375
10,1734037202689.3125,-71.77734375,-345.703125,-125,-18.06640625
11,1734037202693.2188,12.20703125,-546.38671875,-112.3046875,5.859375
0,1734037202697.125,135.25390625,-66.89453125,-30.76171875,13.18359375
1,1734037202701.0312,25.390625,214.35546875,-27.83203125,-11.71875
2,1734037202704.9375,-112.3046875,-130.859375,-86.42578125,-20.01953125
3,1734037202708.8438,-32.71484375,-198.73046875,-104.4921875,-9.27734375
4,1734037202712.75,134.27734375,105.46875,-106.93359375,10.7421875
5,1734037202716.6562,118.65234375,-191.89453125,-104.98046875,13.671875
6,1734037202720.5625,-56.15234375,-744.140625,-142.08984375,-5.37109375
7,1734037202724.4688,-60.546875,-860.83984375,-131.34765625,-20.99609375
8,1734037202728.375,87.890625,-479.00390625,-41.9921875,-39.0625
9,1734037202732.2812,127.9296875,-45.8984375,-38.57421875,-29.78515625
10,1734037202736.1875,-48.828125,-448.73046875,-116.69921875,-39.55078125
11,1734037202740.0938,-106.4453125,-819.82421875,-114.74609375,-51.26953125
0,1734037202744,52.24609375,-95.703125,-42.96875,-30.76171875
1,1734037202747.9062,140.13671875,116.2109375,-82.51953125,-0.48828125
2,1734037202751.8125,-8.7890625,-442.3828125,-115.72265625,-18.06640625
3,1734037202755.7188,-104.98046875,-311.03515625,-43.45703125,-39.55078125
4,1734037202759.625,-11.71875,153.3203125,-16.11328125,-22.94921875
5,1734037202763.5312,123.53515625,-206.0546875,-84.47265625,-0.9765625
6,1734037202767.4375,29.296875,-724.609375,-90.33203125,-4.8828125
7,1734037202771.3438,-107.91015625,-330.56640625,6.34765625,-24.90234375
8,1734037202775.25,-44.921875,254.8828125,17.08984375,-23.4375
9,1734037202779.1562,88.8671875,-28.3203125,-44.43359375,6.8359375
10,1734037202783.0625,41.50390625,-259.765625,-47.36328125,-4.39453125
11,1734037202786.9688,-125.48828125,29.78515625,-23.92578125,-50.78125
0,1734037202790.875,-142.08984375,185.546875,-45.41015625,-52.734375
1,1734037202794.7812,-9.27734375,-161.1328125,-99.12109375,-16.11328125
2,1734037202798.6875,49.8046875,-407.71484375,-101.5625,-8.30078125
3,1734037202802.5938,-120.1171875,-42.48046875,-53.7109375,-46.38671875
4,1734037202806.5,-196.2890625,80.56640625,-31.25,-58.10546875
5,1734037202810.4062,-77.1484375,-532.71484375,-111.328125,-29.78515625
6,1734037202814.3125,58.59375,-887.6953125,-129.8828125,-8.7890625
7,1734037202818.2188,-39.55078125,-492.67578125,-41.015625,-38.57421875
8,1734037202822.125,-143.06640625,-310.546875,-48.828125,-50.29296875
9,1734037202826.0312,-24.4140625,-657.71484375,-141.11328125,1.953125
10,1734037202829.9375,136.23046875,-858.88671875,-132.8125,40.0390625
11,1734037202833.8438,66.40625,-99.12109375,9.27734375,-1.953125
0,1734037202837.75,-107.421875,162.109375,-18.06640625,-40.0390625
1,1734037202841.6562,-46.38671875,-104.98046875,-60.05859375,-8.30078125
2,1734037202845.5625,104.00390625,29.78515625,-41.9921875,19.04296875
3,1734037202849.4688,80.56640625,158.203125,-61.03515625,1.46484375
4,1734037202853.375,-104.00390625,-173.33984375,-99.12109375,-36.1328125
5,1734037202857.2812,-149.90234375,-719.7265625,-121.58203125,-29.78515625
6,1734037202861.1875,27.34375,-672.36328125,-76.66015625,9.27734375
7,1734037202865.0938,117.67578125,-5.37109375,-39.0625,5.37109375
8,1734037202869,-55.17578125,-67.3828125,-93.75,-29.296875
9,1734037202872.9062,-131.34765625,-503.90625,-90.33203125,-31.73828125
10,1734037202876.8125,4.8828125,-68.84765625,-9.765625,-23.4375
11,1734037202880.7188,138.671875,229.00390625,-25.87890625,-4.39453125
0,1734037202884.625,0.9765625,-209.47265625,-108.3984375,-14.6484375
1,1734037202888.5312,-141.6015625,-395.99609375,-101.07421875,-38.57421875
2,1734037202892.4375,-66.89453125,-27.34375,-57.12890625,-28.3203125
3,1734037202896.3438,76.66015625,42.96875,-83.984375,-15.625
4,1734037202900.25,69.82421875,-354.4921875,-113.76953125,-15.625
5,1734037202904.1562,-81.0546875,-711.42578125,-107.421875,-31.25
6,1734037202908.0625,-71.77734375,-589.84375,-82.03125,-28.80859375
7,1734037202911.9688,108.3984375,-515.625,-75.1953125,9.765625
8,1734037202915.875,143.06640625,-723.6328125,-144.04296875,37.109375
9,1734037202919.7812,-43.9453125,-1000,-185.546875,16.11328125
10,1734037202923.6875,-101.5625,-617.67578125,-54.6875,-18.5546875
11,1734037202927.5938,31.73828125,-48.828125,-60.546875,-18.06640625
0,1734037202931.5,140.13671875,-230.95703125,-110.3515625,9.27734375
1,1734037202935.4062,-3.90625,-128.90625,-39.55078125,-8.30078125
2,1734037202939.3125,-114.2578125,80.078125,-37.59765625,-35.15625
3,1734037202943.2188,-21.484375,-70.3125,-98.6328125,-10.25390625
4,1734037202947.125,99.609375,-356.4453125,-137.20703125,8.7890625
5,1734037202951.0312,14.6484375,-523.4375,-123.53515625,2.9296875
6,1734037202954.9375,-103.515625,-542.96875,-100.09765625,-5.37109375
7,1734037202958.8438,-62.98828125,-427.24609375,-117.1875,-20.01953125
8,1734037202962.75,68.84765625,-729.4921875,-154.78515625,-12.20703125
9,1734037202966.6562,40.52734375,-725.5859375,-95.21484375,-24.90234375
10,1734037202970.5625,-108.3984375,-118.65234375,-47.36328125,-42.48046875
11,1734037202974.4688,-88.37890625,-302.734375,-109.86328125,-21.484375
0,1734037202978.375,78.61328125,-706.0546875,-128.90625,14.6484375
1,1734037202982.2812,110.3515625,-221.19140625,-80.078125,-6.8359375
2,1734037202986.1875,-102.5390625,-46.875,-96.19140625,-57.6171875
3,1734037202990.0938,-163.0859375,-371.09375,-105.46875,-68.84765625
4,1734037202994,-18.5546875,-453.61328125,-103.02734375,-52.734375
5,1734037202997.9062,74.21875,-465.33203125,-126.46484375,-37.109375
6,1734037203001.8125,-61.5234375,-661.62109375,-134.27734375,-41.50390625
7,1734037203005.7188,-152.83203125,-788.57421875,-117.67578125,-30.2734375
8,1734037203009.625,-34.66796875,-609.86328125,-83.49609375,-8.30078125
9,1734037203013.5312,156.25,-122.55859375,-72.265625,8.30078125
10,1734037203017.4375,86.9140625,-62.01171875,-71.77734375,-0.9765625
11,1734037203021.3438,-120.60546875,-596.6796875,-127.9296875,-26.85546875
0,1734037203025.25,-79.58984375,-1000,-166.50390625,-6.34765625
1,1734037203029.1562,124.0234375,-511.23046875,-52.24609375,19.53125
2,1734037203033.0625,138.18359375,-125,-42.96875,10.25390625
3,1734037203036.9688,-47.8515625,-366.69921875,-76.66015625,-17.08984375
4,1734037203040.875,-82.03125,-233.88671875,-60.05859375,-20.5078125
5,1734037203044.7812,66.40625,-333.0078125,-80.078125,11.23046875
6,1734037203048.6875,120.1171875,-650.390625,-122.55859375,20.5078125
7,1734037203052.5938,-49.8046875,-723.14453125,-139.16015625,-3.41796875
8,1734037203056.5,-139.6484375,-347.65625,-99.12109375,-24.90234375
9,1734037203060.4062,-13.671875,20.5078125,-88.37890625,-29.78515625
10,1734037203064.3125,90.33203125,-327.1484375,-145.99609375,-18.06640625
11,1734037203068.2188,-31.25,-764.16015625,-149.90234375,-21.484375
0,1734037203072.125,-134.27734375,-290.52734375,-48.33984375,-37.59765625
1,1734037203076.0312,-68.359375,-36.1328125,-51.7578125,-42.96875
2,1734037203079.9375,52.734375,-626.953125,-128.90625,-30.76171875
3,1734037203083.8438,-5.859375,-750,-118.1640625,-28.3203125
4,1734037203087.75,-129.39453125,-151.3671875,-61.03515625,-24.90234375
5,1734037203091.6562,-111.328125,-368.65234375,-110.83984375,-35.64453125
6,1734037203095.5625,19.53125,-857.91015625,-189.94140625,-36.1328125
7,1734037203099.4688,49.31640625,-923.33984375,-139.16015625,-7.8125
8,1734037203103.375,-102.5390625,-503.90625,-20.5078125,-7.32421875
9,1734037203107.2812,-124.0234375,-62.01171875,-49.8046875,-2.9296875
10,1734037203111.1875,13.671875,-541.015625,-165.0390625,12.6953125
11,1734037203115.0938,77.63671875,-658.203125,-135.7421875,4.39453125
0,1734037203119,-77.63671875,-49.31640625,-52.24609375,-14.16015625
1,1734037203122.9062,-159.66796875,-108.88671875,-83.0078125,-17.08984375
2,1734037203126.8125,-40.52734375,-384.27734375,-99.12109375,-25.87890625
3,1734037203130.7188,72.265625,-203.61328125,-97.65625,-19.53125
4,1734037203134.625,-45.8984375,-296.875,-109.375,-17.08984375
5,1734037203138.5312,-187.5,-617.67578125,-99.12109375,-25.390625
6,1734037203142.4375,-147.4609375,-912.109375,-186.03515625,-27.34375
7,1734037203146.3438,29.296875,-812.98828125,-121.09375,-17.08984375
8,1734037203150.25,21.97265625,-156.25,-17.578125,-21.97265625
9,1734037203154.1562,-172.36328125,-300.78125,-115.72265625,-48.33984375
10,1734037203158.0625,-147.94921875,-510.25390625,-123.53515625,-47.36328125
11,1734037203161.9688,35.64453125,-144.53125,-77.63671875,-22.94921875
0,1734037203165.875,55.17578125,-12.20703125,-99.609375,-22.94921875
1,1734037203169.7812,-115.234375,-378.90625,-166.015625,-29.78515625
2,1734037203173.6875,-163.57421875,-503.41796875,-150.390625,-20.99609375
3,1734037203177.5938,-35.64453125,-148.4375,-103.515625,-26.3671875
4,1734037203181.5,51.7578125,-205.078125,-109.375,-39.0625
5,1734037203185.4062,-100.09765625,-710.9375,-138.671875,-39.55078125
6,1734037203189.3125,-183.59375,-923.33984375,-109.375,-24.90234375
7,1734037203193.2188,-74.70703125,-725.09765625,-76.171875,-28.80859375
8,1734037203197.125,57.12890625,-687.01171875,-82.51953125,-39.55078125
9,1734037203201.0312,-43.45703125,-905.2734375,-133.30078125,-38.0859375
10,1734037203204.9375,-170.8984375,-781.25,-106.4453125,-40.0390625
11,1734037203208.8438,-82.51953125,-200.68359375,-36.62109375,-39.55078125
0,1734037203212.75,82.03125,-120.60546875,-114.74609375,-3.90625
1,1734037203216.6562,56.640625,-624.0234375,-181.640625,6.8359375
2,1734037203220.5625,-136.23046875,-585.44921875,-124.0234375,-38.0859375
3,1734037203224.4688,-144.53125,-115.234375,-76.66015625,-66.40625
4,1734037203228.375,24.90234375,-234.86328125,-104.4921875,-37.59765625
5,1734037203232.2812,72.75390625,-688.96484375,-116.69921875,-23.4375
6,1734037203236.1875,-95.21484375,-766.11328125,-96.19140625,-51.7578125
7,1734037203240.0938,-163.0859375,-268.5546875,-67.87109375,-57.6171875
8,1734037203244,-48.33984375,-292.48046875,-132.32421875,-47.8515625
9,1734037203247.9062,57.6171875,-828.125,-181.15234375,-23.4375
10,1734037203251.8125,-61.03515625,-500.48828125,-75.68359375,-42.96875
11,1734037203255.7188,-163.57421875,-19.04296875,-53.22265625,-66.40625
0,1734037203259.625,-75.68359375,-397.94921875,-127.44140625,-23.92578125
1,1734037203263.5312,58.10546875,-644.53125,-130.859375,10.7421875
2,1734037203267.4375,5.37109375,-244.62890625,-95.21484375,-9.765625
3,1734037203271.3438,-135.7421875,-132.8125,-106.4453125,-25.87890625
4,1734037203275.25,-98.14453125,-477.5390625,-145.99609375,-12.6953125
5,1734037203279.1562,32.71484375,-849.12109375,-157.71484375,0
6,1734037203283.0625,12.20703125,-808.10546875,-134.765625,-4.8828125
7,1734037203286.9688,-109.375,-766.11328125,-107.91015625,-7.8125
8,1734037203290.875,-130.859375,-895.99609375,-154.296875,-8.30078125
9,1734037203294.7812,28.3203125,-977.5390625,-157.71484375,5.859375
10,1734037203298.6875,125.48828125,-446.77734375,-18.5546875,9.27734375
11,1734037203302.5938,-72.75390625,-306.640625,-32.2265625,-28.3203125
0,1734037203306.5,-167.96875,-740.72265625,-76.171875,-46.38671875
1,1734037203310.4062,-31.73828125,-487.79296875,-34.1796875,-24.4140625
2,1734037203314.3125,81.0546875,-93.26171875,-40.0390625,-10.25390625
3,1734037203318.2188,-64.94140625,-274.90234375,-74.21875,-31.25
4,1734037203322.125,-179.6875,-568.84765625,-73.2421875,-32.2265625
5,1734037203326.0312,-90.33203125,-712.40234375,-91.796875,-16.6015625
6,1734037203329.9375,54.6875,-736.328125,-111.81640625,-20.5078125
7,1734037203333.8438,3.41796875,-652.34375,-97.65625,-34.1796875
8,1734037203337.75,-167.96875,-830.078125,-123.53515625,-44.921875
9,1734037203341.6562,-126.46484375,-565.91796875,-63.96484375,-22.94921875
10,1734037203345.5625,43.45703125,-134.27734375,-35.15625,2.9296875
11,1734037203349.4688,42.48046875,-492.1875,-121.09375,-9.27734375
0,1734037203353.375,-118.65234375,-719.7265625,-123.046875,-24.90234375
1,1734037203357.2812,-131.8359375,-359.375,-77.63671875,-20.01953125
2,1734037203361.1875,17.578125,-548.33984375,-104.4921875,16.6015625
3,1734037203365.0938,98.14453125,-877.9296875,-125,35.15625
4,1734037203369,-79.1015625,-753.41796875,-83.0078125,-4.8828125
5,1734037203372.9062,-168.45703125,-663.57421875,-57.6171875,-30.76171875
6,1734037203376.8125,-63.96484375,-844.7265625,-59.5703125,-28.3203125
7,1734037203380.7188,52.734375,-919.43359375,-112.79296875,-13.18359375
8,1734037203384.625,-46.38671875,-1000,-163.57421875,-6.8359375
9,1734037203388.5312,-142.578125,-630.37109375,-30.2734375,-15.625
10,1734037203392.4375,-65.4296875,-210.44921875,-24.4140625,-14.6484375
11,1734037203396.3438,71.77734375,-462.890625,-85.9375,0
0,1734037203400.25,53.7109375,-417.96875,-74.21875,5.37109375
1,1734037203404.1562,-118.65234375,-192.87109375,-63.96484375,-14.6484375
2,1734037203408.0625,-122.55859375,-317.3828125,-67.87109375,-15.13671875
3,1734037203411.9688,33.69140625,-543.9453125,-93.75,-12.20703125
4,1734037203415.875,83.984375,-564.453125,-103.02734375,-8.7890625
5,1734037203419.7812,-90.33203125,-710.44921875,-132.8125,-28.80859375
6,1734037203423.6875,-132.8125,-857.421875,-120.1171875,-41.9921875
7,1734037203427.5938,7.8125,-1000,-146.484375,-6.8359375
8,1734037203431.5,107.421875,-833.0078125,-78.125,-0.48828125
9,1734037203435.4062,-16.11328125,-276.85546875,4.39453125,-28.3203125
10,1734037203439.3125,-138.18359375,-458.49609375,-84.9609375,-35.64453125
11,1734037203443.2188,-23.4375,-660.64453125,-112.79296875,7.8125
0,1734037203447.125,136.23046875,-314.94140625,-74.21875,41.9921875
1,1734037203451.0312,29.296875,-247.55859375,-86.9140625,12.6953125
2,1734037203454.9375,-144.53125,-603.515625,-119.140625,-29.78515625
3,1734037203458.8438,-81.0546875,-683.59375,-95.703125,-34.1796875
4,1734037203462.75,96.6796875,-359.86328125,-80.078125,-3.90625
5,1734037203466.6562,62.98828125,-682.12890625,-85.44921875,-1.46484375
6,1734037203470.5625,-131.8359375,-991.69921875,-154.78515625,-23.92578125
7,1734037203474.4688,-139.16015625,-942.3828125,-171.875,-38.57421875
8,1734037203478.375,57.6171875,-866.69921875,-79.1015625,-18.5546875
9,1734037203482.2812,112.79296875,-635.25390625,-52.24609375,-1.953125
10,1734037203486.1875,-107.91015625,-761.71875,-129.39453125,-24.4140625
11,1734037203490.0938,-177.24609375,-844.7265625,-132.32421875,-29.78515625
0,1734037203494,3.41796875,-285.15625,-27.83203125,-15.625
1,1734037203497.9062,125.9765625,-247.0703125,-69.82421875,-6.34765625
2,1734037203501.8125,-16.6015625,-556.640625,-95.703125,-17.578125
3,1734037203505.7188,-119.62890625,-421.38671875,-82.03125,-20.99609375
4,1734037203509.625,-19.04296875,-285.64453125,-114.2578125,-11.71875
5,1734037203513.5312,114.74609375,-680.17578125,-147.94921875,-9.765625
6,1734037203517.4375,19.04296875,-959.9609375,-137.20703125,-31.73828125
7,1734037203521.3438,-120.60546875,-613.28125,-51.26953125,-43.9453125
8,1734037203525.25,-40.52734375,-224.12109375,-40.0390625,-26.3671875
9,1734037203529.1562,98.14453125,-547.36328125,-140.625,-5.37109375
10,1734037203533.0625,91.796875,-794.43359375,-146.484375,0
11,1734037203536.9688,-46.875,-402.83203125,-67.3828125,-9.27734375
0,1734037203540.875,-44.921875,-186.5234375,-79.58984375,3.90625
1,1734037203544.7812,98.6328125,-558.10546875,-148.4375,30.2734375
2,1734037203548.6875,120.1171875,-768.5546875,-126.46484375,24.4140625
3,1734037203552.5938,-58.10546875,-391.6015625,-73.2421875,-19.53125
4,1734037203556.5,-117.1875,-355.46875,-91.30859375,-38.57421875
5,1734037203560.4062,-20.01953125,-763.671875,-154.78515625,-31.25
6,1734037203564.3125,105.46875,-989.2578125,-131.34765625,-12.6953125
7,1734037203568.2188,22.4609375,-854.4921875,-91.30859375,-20.5078125
8,1734037203572.125,-93.26171875,-797.8515625,-112.79296875,-26.3671875
9,1734037203576.0312,-19.04296875,-916.50390625,-158.203125,-7.32421875
10,1734037203579.9375,97.65625,-829.1015625,-126.46484375,0.48828125
11,1734037203583.8438,28.80859375,-476.07421875,-40.0390625,-13.671875
0,1734037203587.75,-109.375,-575.68359375,-61.03515625,-28.80859375
1,1734037203591.6562,-74.70703125,-815.4296875,-90.33203125,-22.94921875
2,1734037203595.5625,85.44921875,-570.3125,-93.75,-19.53125
3,1734037203599.4688,104.4921875,-174.8046875,-69.3359375,-20.01953125
4,1734037203603.375,-102.5390625,-291.015625,-67.3828125,-48.33984375
5,1734037203607.2812,-165.52734375,-720.21484375,-85.9375,-62.01171875
6,1734037203611.1875,0.9765625,-844.7265625,-76.171875,-18.5546875
7,1734037203615.0938,103.02734375,-394.04296875,-42.48046875,-6.8359375
8,1734037203619,-53.22265625,-416.50390625,-88.8671875,-24.90234375
9,1734037203622.9062,-129.39453125,-819.3359375,-125.48828125,-10.25390625
10,1734037203626.8125,-8.30078125,-457.03125,-42.96875,-9.765625
11,1734037203630.7188,133.7890625,-92.28515625,-32.2265625,-22.4609375
0,1734037203634.625,43.45703125,-450.1953125,-81.0546875,-17.08984375
1,1734037203638.5312,-87.890625,-602.5390625,-73.73046875,-6.34765625
2,1734037203642.4375,-38.0859375,-508.7890625,-71.2890625,-13.18359375
3,1734037203646.3438,75.1953125,-438.96484375,-91.30859375,-18.5546875
4,1734037203650.25,35.64453125,-563.4765625,-129.39453125,-1.953125
5,1734037203654.1562,-114.2578125,-969.23828125,-111.328125,-6.8359375
6,1734037203658.0625,-105.46875,-793.45703125,-42.96875,-24.4140625
7,1734037203661.9688,35.15625,-675.29296875,-34.1796875,-7.32421875
8,1734037203665.875,53.22265625,-863.28125,-115.234375,-8.30078125
9,1734037203669.7812,-115.234375,-977.05078125,-151.3671875,-17.08984375
10,1734037203673.6875,-122.55859375,-447.75390625,-26.85546875,-4.39453125
11,1734037203677.5938,28.3203125,-157.2265625,-44.43359375,-1.46484375
0,1734037203681.5,83.0078125,-415.52734375,-110.83984375,-6.34765625
1,1734037203685.4062,-72.265625,-347.65625,-80.56640625,-16.11328125
2,1734037203689.3125,-173.33984375,-132.32421875,-41.50390625,-21.97265625
3,1734037203693.2188,-96.6796875,-258.30078125,-63.96484375,-20.99609375
4,1734037203697.125,26.3671875,-657.2265625,-95.21484375,-13.18359375
5,1734037203701.0312,-28.80859375,-779.78515625,-61.03515625,-7.8125
6,1734037203704.9375,-157.71484375,-730.95703125,-54.6875,-18.06640625
7,1734037203708.8438,-121.58203125,-745.1171875,-81.54296875,-26.3671875
8,1734037203712.75,17.08984375,-970.703125,-145.5078125,4.8828125
9,1734037203716.6562,31.73828125,-796.875,-76.66015625,13.18359375
10,1734037203720.5625,-103.515625,-168.9453125,-10.25390625,-6.8359375
11,1734037203724.4688,-113.76953125,-383.30078125,-75.1953125,11.23046875
0,1734037203728.375,34.1796875,-584.47265625,-73.2421875,16.6015625
1,1734037203732.2812,98.6328125,-231.93359375,-41.015625,11.23046875
2,1734037203736.1875,-39.0625,-154.78515625,-26.3671875,12.6953125
3,1734037203740.0938,-124.0234375,-465.8203125,-50.29296875,0
4,1734037203744,-12.6953125,-577.1484375,-65.4296875,6.34765625
5,1734037203747.9062,96.19140625,-541.50390625,-72.75390625,17.08984375
6,1734037203751.8125,-44.921875,-777.83203125,-73.73046875,-15.13671875
7,1734037203755.7188,-164.55078125,-889.16015625,-123.53515625,-26.85546875
8,1734037203759.625,-84.9609375,-1000,-161.1328125,-6.34765625
9,1734037203763.5312,84.47265625,-619.140625,-30.2734375,-11.71875
10,1734037203767.4375,15.13671875,-146.484375,-15.625,-38.0859375
11,1734037203771.3438,-158.203125,-535.15625,-76.171875,-42.96875
0,1734037203775.25,-103.515625,-607.91015625,-43.45703125,-32.71484375
1,1734037203779.1562,55.17578125,-154.296875,-46.875,-21.484375
2,1734037203783.0625,65.91796875,-211.42578125,-85.9375,-8.30078125
3,1734037203786.9688,-101.07421875,-469.7265625,-64.94140625,-30.2734375
4,1734037203790.875,-135.7421875,-329.58984375,-60.05859375,-51.26953125
5,1734037203794.7812,48.33984375,-438.96484375,-93.26171875,-17.578125
6,1734037203798.6875,125.9765625,-761.71875,-98.14453125,-1.953125
7,1734037203802.5938,-46.875,-900.87890625,-101.5625,-26.3671875
8,1734037203806.5,-137.20703125,-477.5390625,-24.90234375,-16.11328125
9,1734037203810.4062,-54.6875,-249.0234375,-42.96875,13.671875
10,1734037203814.3125,58.59375,-734.375,-148.4375,10.7421875
11,1734037203818.2188,-65.91796875,-721.19140625,-133.7890625,-9.27734375
0,1734037203822.125,-196.77734375,-238.76953125,-60.546875,-26.85546875
1,1734037203826.0312,-117.67578125,-67.3828125,-54.6875,-21.97265625
2,1734037203829.9375,33.69140625,-491.69921875,-111.328125,0
3,1734037203833.8438,-1.46484375,-637.20703125,-102.05078125,0.9765625
4,1734037203837.75,-145.99609375,-222.16796875,-69.3359375,-20.99609375
5,1734037203841.6562,-104.4921875,-493.1640625,-103.02734375,-30.2734375
6,1734037203845.5625,78.125,-865.72265625,-148.92578125,10.7421875
7,1734037203849.4688,62.5,-1000,-135.7421875,15.625
8,1734037203853.375,-132.32421875,-617.67578125,-61.03515625,-45.8984375
9,1734037203857.2812,-153.3203125,-144.53125,-95.703125,-60.05859375
10,1734037203861.1875,-11.23046875,-521.484375,-125.48828125,-24.90234375
11,1734037203865.0938,81.54296875,-576.171875,-69.82421875,-6.34765625
0,1734037203869,-68.84765625,-395.5078125,-42.48046875,-37.109375
1,1734037203872.9062,-159.1796875,-340.33203125,-43.45703125,-46.38671875
2,1734037203876.8125,-6.8359375,-564.94140625,-68.84765625,-21.97265625
3,1734037203880.7188,121.09375,-504.8828125,-54.19921875,-5.37109375
4,1734037203884.625,-27.34375,-170.8984375,-54.19921875,-24.4140625
5,1734037203888.5312,-158.203125,-528.3203125,-93.75,-46.38671875
6,1734037203892.4375,-95.703125,-875.9765625,-103.02734375,-27.83203125
7,1734037203896.3438,89.35546875,-511.71875,-33.69140625,1.953125
8,1734037203900.25,71.2890625,-60.05859375,-22.94921875,-10.7421875
9,1734037203904.1562,-100.09765625,-345.703125,-81.54296875,-9.27734375
10,1734037203908.0625,-85.9375,-526.3671875,-83.49609375,-8.7890625
11,1734037203911.9688,67.87109375,-209.47265625,-71.77734375,-2.9296875
0,1734037203915.875,100.09765625,-71.2890625,-77.63671875,11.71875
1,1734037203919.7812,-95.21484375,-390.13671875,-84.47265625,-11.71875
2,1734037203923.6875,-150.390625,-780.76171875,-70.80078125,-12.6953125
3,1734037203927.5938,-14.6484375,-547.8515625,-48.828125,-5.37109375
4,1734037203931.5,73.2421875,-296.875,-60.546875,-4.39453125
5,1734037203935.4062,-93.75,-718.26171875,-145.5078125,-15.625
6,1734037203939.3125,-188.4765625,-1000,-142.578125,-12.20703125
7,1734037203943.2188,-45.8984375,-821.77734375,-32.71484375,6.34765625
8,1734037203947.125,103.02734375,-529.78515625,-61.5234375,-0.48828125
9,1734037203951.0312,-15.625,-704.58984375,-137.6953125,-16.11328125
10,1734037203954.9375,-163.0859375,-751.953125,-84.47265625,-31.73828125
11,1734037203958.8438,-88.8671875,-235.83984375,-36.1328125,-38.57421875
0,1734037203962.75,57.6171875,-243.65234375,-94.23828125,-15.625
1,1734037203966.6562,74.21875,-488.28125,-120.60546875,17.08984375
2,1734037203970.5625,-83.0078125,-424.8046875,-117.67578125,9.765625
3,1734037203974.4688,-129.39453125,-234.86328125,-84.47265625,-22.94921875
4,1734037203978.375,0.9765625,-356.93359375,-88.37890625,-25.87890625
5,1734037203982.2812,38.0859375,-786.1328125,-107.421875,-26.85546875
6,1734037203986.1875,-99.12109375,-903.80859375,-76.66015625,-33.203125
7,1734037203990.0938,-138.671875,-781.73828125,-65.91796875,-22.94921875
8,1734037203994,-16.6015625,-746.09375,-78.125,-9.27734375
9,1734037203997.9062,74.70703125,-969.7265625,-161.62109375,11.23046875
10,1734037204001.8125,-35.64453125,-773.92578125,-85.44921875,-1.46484375
11,1734037204005.7188,-102.5390625,-145.5078125,11.71875,-1.953125
0,1734037204009.625,-17.08984375,-360.83984375,-80.56640625,22.4609375
1,1734037204013.5312,104.98046875,-579.58984375,-101.07421875,8.30078125
2,1734037204017.4375,31.25,-270.01953125,-64.94140625,-15.625
3,1734037204021.3438,-121.09375,-143.06640625,-66.40625,-20.01953125
4,1734037204025.25,-82.03125,-477.05078125,-94.7265625,-13.18359375
5,1734037204029.1562,96.6796875,-863.28125,-108.3984375,-0.9765625
6,1734037204033.0625,102.05078125,-765.13671875,-75.68359375,4.8828125
7,1734037204036.9688,-61.5234375,-677.734375,-60.546875,-2.9296875
8,1734037204040.875,-83.49609375,-868.65234375,-119.140625,1.46484375
9,1734037204044.7812,62.98828125,-729.98046875,-99.12109375,11.71875
10,1734037204048.6875,133.7890625,-189.453125,-50.29296875,-6.8359375
11,1734037204052.5938,-61.5234375,-122.0703125,-77.1484375,-32.71484375
0,1734037204056.5,-169.43359375,-634.765625,-165.0390625,-26.85546875
1,1734037204060.4062,-48.33984375,-1000,-171.38671875,-16.11328125
2,1734037204064.3125,95.21484375,-409.1796875,-33.203125,-17.08984375
3,1734037204068.2188,-0.9765625,-194.3359375,-63.96484375,-14.6484375
4,1734037204072.125,-104.98046875,-481.4453125,-111.328125,-19.04296875
5,1734037204076.0312,-34.66796875,-559.08203125,-95.703125,-25.87890625
6,1734037204079.9375,107.91015625,-600.5859375,-76.66015625,-10.25390625
7,1734037204083.8438,51.7578125,-653.3203125,-74.70703125,-20.5078125
8,1734037204087.75,-117.1875,-790.52734375,-88.37890625,-30.2734375
9,1734037204091.6562,-74.70703125,-607.91015625,-35.64453125,-13.671875
10,1734037204095.5625,90.8203125,-291.015625,-9.27734375,18.06640625
11,1734037204099.4688,108.3984375,-452.63671875,-59.08203125,25.87890625
0,1734037204103.375,-64.94140625,-678.22265625,-98.14453125,-2.9296875
1,1734037204107.2812,-87.40234375,-220.21484375,-45.8984375,-2.9296875
2,1734037204111.1875,74.21875,-29.78515625,-33.69140625,11.71875
3,1734037204115.0938,149.90234375,-390.13671875,-54.19921875,6.34765625
4,1734037204119,-0.48828125,-501.953125,-44.43359375,-6.34765625
5,1734037204122.9062,-97.16796875,-449.70703125,-57.6171875,-6.34765625
6,1734037204126.8125,14.16015625,-678.22265625,-67.3828125,5.859375
7,1734037204130.7188,163.57421875,-873.046875,-111.81640625,28.80859375
8,1734037204134.625,57.12890625,-978.515625,-110.83984375,12.6953125
9,1734037204138.5312,-76.171875,-399.90234375,9.27734375,-30.2734375
10,1734037204142.4375,-15.13671875,-26.85546875,-8.7890625,-31.73828125
11,1734037204146.3438,133.30078125,-312.01171875,-53.7109375,-10.25390625
0,1734037204150.25,101.07421875,-546.875,-78.61328125,-12.20703125
1,1734037204154.1562,-50.29296875,-322.75390625,-74.70703125,-25.390625
2,1734037204158.0625,-34.66796875,-123.046875,-61.5234375,-10.25390625
3,1734037204161.9688,104.98046875,-577.1484375,-97.16796875,18.06640625
4,1734037204165.875,147.4609375,-486.81640625,-80.56640625,19.04296875
5,1734037204169.7812,-9.27734375,-372.55859375,-74.21875,10.25390625
6,1734037204173.6875,-107.91015625,-730.46875,-117.67578125,-12.20703125
7,1734037204177.5938,-5.37109375,-878.90625,-142.578125,-10.7421875
8,1734037204181.5,108.88671875,-513.18359375,-71.77734375,14.16015625
9,1734037204185.4062,-33.69140625,-102.05078125,-53.22265625,-1.46484375
10,1734037204189.3125,-149.4140625,-385.7421875,-103.02734375,-10.7421875
11,1734037204193.2188,-40.52734375,-711.42578125,-97.16796875,0.48828125
0,1734037204197.125,95.703125,-464.84375,-65.91796875,-1.953125
1,1734037204201.0312,-1.953125,-138.18359375,-67.87109375,-25.390625
2,1734037204204.9375,-142.578125,-541.015625,-113.76953125,-31.73828125
3,1734037204208.8438,-61.5234375,-746.09375,-109.375,-3.90625
4,1734037204212.75,83.49609375,-189.453125,-65.91796875,1.953125
5,1734037204216.6562,20.99609375,-354.00390625,-79.1015625,-15.625
6,1734037204220.5625,-166.50390625,-794.43359375,-143.06640625,-25.390625
7,1734037204224.4688,-176.26953125,-990.234375,-143.06640625,-27.34375
8,1734037204228.375,-12.6953125,-428.22265625,-20.5078125,-35.64453125
9,1734037204232.2812,40.0390625,177.24609375,-28.80859375,-31.73828125
10,1734037204236.1875,-138.18359375,-322.265625,-100.5859375,-39.55078125
11,1734037204240.0938,-201.171875,-407.2265625,-81.0546875,-55.17578125
0,1734037204244,-64.453125,143.06640625,-50.29296875,-41.9921875
1,1734037204247.9062,53.7109375,78.61328125,-103.515625,-20.5078125
2,1734037204251.8125,-66.40625,-307.6171875,-148.92578125,-27.34375
3,1734037204255.7188,-173.33984375,-216.30859375,-130.37109375,-39.55078125
4,1734037204259.625,-77.63671875,-20.01953125,-133.7890625,-26.85546875
5,1734037204263.5312,63.96484375,-312.5,-142.578125,-15.625
6,1734037204267.4375,-20.99609375,-769.04296875,-166.50390625,-20.01953125
7,1734037204271.3438,-160.64453125,-698.73046875,-88.8671875,-22.4609375
8,1734037204275.25,-125.48828125,-8.7890625,-4.39453125,-43.45703125
9,1734037204279.1562,6.8359375,-95.703125,-66.89453125,-24.4140625
10,1734037204283.0625,7.32421875,-527.34375,-93.75,-4.39453125
11,1734037204286.9688,-158.69140625,-105.46875,-42.96875,-33.69140625
0,1734037204290.875,-167.48046875,185.546875,-38.57421875,-27.83203125
1,1734037204294.7812,-2.44140625,-206.54296875,-88.37890625,-1.46484375
2,1734037204298.6875,58.10546875,-398.92578125,-104.4921875,-7.8125
3,1734037204302.5938,-104.4921875,-62.5,-52.24609375,-33.203125
4,1734037204306.5,-166.015625,3.90625,-41.015625,-33.203125
5,1734037204310.4062,-58.59375,-526.85546875,-103.02734375,-12.6953125
6,1734037204314.3125,73.2421875,-902.34375,-92.28515625,0.48828125
7,1734037204318.2188,-4.39453125,-661.62109375,-54.19921875,-1.46484375
8,1734037204322.125,-119.140625,-578.125,-55.17578125,-24.4140625
9,1734037204326.0312,-77.1484375,-777.83203125,-100.5859375,-48.33984375
10,1734037204329.9375,47.36328125,-1000,-137.20703125,-24.4140625
11,1734037204333.8438,10.7421875,-558.59375,-4.8828125,-23.4375
0,1734037204337.75,-129.39453125,-130.37109375,-0.48828125,-39.55078125
1,1734037204341.6562,-87.890625,-293.45703125,-64.94140625,-23.4375
2,1734037204345.5625,71.77734375,-207.03125,-60.05859375,-2.9296875
3,1734037204349.4688,61.5234375,-8.30078125,-71.77734375,-12.20703125
4,1734037204353.375,-124.51171875,-294.921875,-92.7734375,-40.52734375
5,1734037204357.2812,-146.484375,-790.0390625,-81.0546875,-29.78515625
6,1734037204361.1875,-14.6484375,-756.34765625,-34.1796875,-18.5546875
7,1734037204365.0938,62.5,-263.671875,-2.9296875,-26.3671875
8,1734037204369,-83.49609375,-176.26953125,-35.15625,-42.96875
9,1734037204372.9062,-172.8515625,-690.4296875,-73.2421875,-52.24609375
10,1734037204376.8125,-58.59375,-657.71484375,-23.4375,-43.9453125
11,1734037204380.7188,82.03125,-121.09375,-8.7890625,-17.578125
0,1734037204384.625,-23.4375,-323.2421875,-98.6328125,-12.6953125
1,1734037204388.5312,-181.15234375,-729.00390625,-125.9765625,-35.15625
2,1734037204392.4375,-113.28125,-256.8359375,-35.15625,-28.3203125
3,1734037204396.3438,43.9453125,-14.6484375,-22.94921875,-8.7890625
4,1734037204400.25,1.46484375,-413.0859375,-82.03125,-20.01953125
5,1734037204404.1562,-170.8984375,-820.3125,-114.74609375,-24.90234375
6,1734037204408.0625,-167.48046875,-710.44921875,-86.9140625,-35.64453125
7,1734037204411.9688,17.08984375,-651.3671875,-50.78125,-29.296875
8,1734037204415.875,50.29296875,-833.984375,-104.98046875,-2.44140625
9,1734037204419.7812,-135.7421875,-983.3984375,-120.60546875,-16.11328125
10,1734037204423.6875,-164.55078125,-416.015625,18.06640625,-35.15625
11,1734037204427.5938,-34.66796875,-88.8671875,-7.8125,-24.4140625
0,1734037204431.5,57.6171875,-600.09765625,-97.16796875,-10.25390625
1,1734037204435.4062,-52.24609375,-587.890625,-94.7265625,-8.30078125
2,1734037204439.3125,-127.9296875,-142.578125,-101.5625,-4.39453125
3,1734037204443.2188,-24.90234375,-202.63671875,-102.5390625,-0.48828125
4,1734037204447.125,79.58984375,-678.22265625,-71.77734375,9.27734375
5,1734037204451.0312,-24.90234375,-851.07421875,-38.57421875,-13.18359375
6,1734037204454.9375,-143.06640625,-694.82421875,-32.71484375,-47.8515625
7,1734037204458.8438,-69.3359375,-672.8515625,-61.5234375,-22.4609375
8,1734037204462.75,87.40234375,-818.84765625,-101.07421875,14.16015625
9,1734037204466.6562,46.38671875,-544.43359375,-32.2265625,-21.484375
10,1734037204470.5625,-134.27734375,-98.6328125,-9.27734375,-61.5234375
11,1734037204474.4688,-143.5546875,-391.6015625,-86.9140625,-46.38671875
0,1734037204478.375,26.85546875,-590.8203125,-92.7734375,-8.7890625
1,1734037204482.2812,78.61328125,-247.55859375,-56.640625,-9.765625
2,1734037204486.1875,-92.28515625,-209.47265625,-65.91796875,-26.85546875
3,1734037204490.0938,-153.80859375,-686.03515625,-140.13671875,-13.671875
4,1734037204494,-23.4375,-796.38671875,-130.859375,-3.90625
5,1734037204497.9062,60.546875,-563.4765625,-74.70703125,-14.6484375
6,1734037204501.8125,-87.40234375,-729.4921875,-68.84765625,-31.25
7,1734037204505.7188,-196.2890625,-907.71484375,-124.51171875,-33.69140625
8,1734037204509.625,-87.890625,-980.95703125,-138.671875,-5.37109375
9,1734037204513.5312,96.19140625,-444.82421875,2.9296875,-2.9296875
10,1734037204517.4375,24.90234375,-90.33203125,-19.04296875,-37.109375
11,1734037204521.3438,-130.37109375,-378.41796875,-89.84375,-36.1328125
0,1734037204525.25,-59.08203125,-290.52734375,-64.453125,-12.6953125
1,1734037204529.1562,117.67578125,3.90625,-67.87109375,11.23046875
2,1734037204533.0625,150.87890625,-149.90234375,-119.62890625,45.41015625
3,1734037204536.9688,-21.484375,-397.94921875,-124.51171875,21.484375
4,1734037204540.875,-102.05078125,-325.68359375,-98.6328125,-40.0390625
5,1734037204544.7812,15.13671875,-445.80078125,-104.00390625,-46.38671875
6,1734037204548.6875,74.21875,-631.34765625,-80.078125,-28.80859375
7,1734037204552.5938,-81.54296875,-933.59375,-125.9765625,-19.53125
8,1734037204556.5,-111.81640625,-765.625,-68.359375,-22.4609375
9,1734037204560.4062,33.203125,-66.89453125,8.7890625,-4.39453125
10,1734037204564.3125,150.87890625,-226.07421875,-73.73046875,15.625
11,1734037204568.2188,30.76171875,-445.80078125,-94.23828125,-16.11328125
0,1734037204572.125,-89.84375,-146.97265625,-61.5234375,-17.578125
1,1734037204576.0312,-8.30078125,-32.2265625,-68.359375,-0.48828125
2,1734037204579.9375,94.23828125,-383.7890625,-116.2109375,-8.30078125
3,1734037204583.8438,30.2734375,-506.34765625,-85.44921875,-17.08984375
4,1734037204587.75,-102.5390625,-192.87109375,-50.29296875,-25.390625
5,1734037204591.6562,-72.75390625,-500.9765625,-104.4921875,-23.4375
6,1734037204595.5625,53.7109375,-877.9296875,-146.484375,-10.25390625
7,1734037204599.4688,46.38671875,-937.01171875,-122.0703125,-13.671875
8,1734037204603.375,-77.63671875,-768.5546875,-37.59765625,-28.3203125
9,1734037204607.2812,-99.609375,-374.51171875,-21.484375,-38.0859375
10,1734037204611.1875,14.16015625,-543.9453125,-86.9140625,-34.1796875
11,1734037204615.0938,115.234375,-689.94140625,-81.54296875,-20.01953125
0,1734037204619,-7.8125,-276.85546875,-40.52734375,-24.4140625
1,1734037204622.9062,-97.16796875,-148.4375,-59.5703125,-26.3671875
2,1734037204626.8125,24.90234375,-543.9453125,-90.8203125,-11.71875
3,1734037204630.7188,145.99609375,-476.5625,-83.984375,-6.8359375
4,1734037204634.625,34.66796875,-104.4921875,-87.40234375,-21.97265625
5,1734037204638.5312,-128.41796875,-456.0546875,-146.484375,-36.62109375
6,1734037204642.4375,-85.9375,-877.44140625,-198.73046875,-35.64453125
7,1734037204646.3438,88.8671875,-587.890625,-139.16015625,-7.32421875
8,1734037204650.25,64.94140625,-70.3125,-88.37890625,-5.859375
9,1734037204654.1562,-90.33203125,-303.7109375,-120.60546875,-9.27734375
10,1734037204658.0625,-98.6328125,-796.875,-136.71875,-7.32421875
11,1734037204661.9688,40.0390625,-520.5078125,-98.6328125,-11.71875
0,1734037204665.875,92.7734375,-110.3515625,-85.44921875,-11.23046875
1,1734037204669.7812,-101.07421875,-497.0703125,-168.9453125,-41.015625
2,1734037204673.6875,-158.203125,-785.15625,-171.38671875,-40.0390625
3,1734037204677.5938,7.32421875,-264.6484375,-88.8671875,-15.13671875
4,1734037204681.5,85.9375,-160.15625,-140.13671875,-13.18359375
5,1734037204685.4062,-70.80078125,-675.78125,-208.0078125,-12.6953125
6,1734037204689.3125,-143.06640625,-959.47265625,-170.8984375,-1.46484375
7,1734037204693.2188,-24.4140625,-782.2265625,-116.2109375,2.9296875
8,1734037204697.125,88.37890625,-500.9765625,-107.421875,-9.27734375
9,1734037204701.0312,-14.16015625,-685.05859375,-184.5703125,-15.13671875
10,1734037204704.9375,-137.6953125,-865.72265625,-175.78125,-15.625
11,1734037204708.8438,-41.50390625,-277.83203125,-60.546875,-16.6015625
0,1734037204712.75,123.046875,-275.87890625,-114.74609375,4.8828125
1,1734037204716.6562,90.33203125,-718.75,-172.36328125,14.16015625
2,1734037204720.5625,-80.56640625,-494.62890625,-142.08984375,-3.41796875
3,1734037204724.4688,-56.15234375,-80.078125,-116.69921875,-29.296875
4,1734037204728.375,72.75390625,-233.88671875,-128.90625,-22.4609375
5,1734037204732.2812,75.1953125,-686.03515625,-142.08984375,-24.90234375
6,1734037204736.1875,-64.453125,-804.19921875,-127.44140625,-42.48046875
7,1734037204740.0938,-111.81640625,-401.3671875,-80.078125,-41.50390625
8,1734037204744,16.11328125,-317.3828125,-98.6328125,-30.2734375
9,1734037204747.9062,127.9296875,-810.546875,-162.109375,-7.8125
10,1734037204751.8125,15.13671875,-576.66015625,-90.33203125,-15.625
11,1734037204755.7188,-105.95703125,-132.32421875,-79.58984375,-41.015625
0,1734037204759.625,-48.828125,-436.5234375,-161.62109375,-38.0859375
1,1734037204763.5312,109.86328125,-588.37890625,-160.15625,7.32421875
2,1734037204767.4375,67.3828125,-287.109375,-103.515625,5.859375
3,1734037204771.3438,-124.0234375,-547.8515625,-104.00390625,-36.1328125
4,1734037204775.25,-91.796875,-872.55859375,-147.94921875,-27.34375
5,1734037204779.1562,87.40234375,-934.5703125,-142.578125,4.8828125
6,1734037204783.0625,83.984375,-803.22265625,-83.0078125,3.41796875
7,1734037204786.9688,-73.73046875,-730.95703125,-62.01171875,-20.01953125
8,1734037204790.875,-80.56640625,-875.48828125,-132.32421875,-21.484375
9,1734037204794.7812,64.94140625,-984.86328125,-181.640625,8.7890625
10,1734037204798.6875,152.34375,-477.5390625,-45.8984375,21.97265625
11,1734037204802.5938,5.859375,-141.11328125,-32.2265625,0.48828125
0,1734037204806.5,-74.21875,-414.0625,-88.8671875,-13.18359375
1,1734037204810.4062,51.7578125,-324.70703125,-65.91796875,5.37109375
2,1734037204814.3125,188.4765625,-92.28515625,-69.3359375,25.87890625
3,1734037204818.2188,59.5703125,-237.3046875,-116.2109375,15.13671875
4,1734037204822.125,-88.8671875,-507.8125,-138.671875,-2.9296875
5,1734037204826.0312,-26.85546875,-610.83984375,-109.375,-1.953125
6,1734037204829.9375,106.93359375,-645.5078125,-102.5390625,6.34765625
7,1734037204833.8438,48.33984375,-717.28515625,-110.3515625,-17.578125
8,1734037204837.75,-127.44140625,-977.05078125,-177.734375,-33.69140625
9,1734037204841.6562,-68.84765625,-777.34375,-134.765625,-18.5546875
10,1734037204845.5625,96.19140625,-93.75,-53.7109375,-28.3203125
11,1734037204849.4688,85.9375,-273.4375,-86.42578125,-37.59765625
0,1734037204853.375,-67.87109375,-497.55859375,-56.640625,-47.8515625
1,1734037204857.2812,-131.8359375,-147.94921875,-41.50390625,-61.03515625
2,1734037204861.1875,-54.19921875,-82.03125,-89.84375,-50.29296875
3,1734037204865.0938,3.41796875,-443.84765625,-122.55859375,-32.2265625
4,1734037204869,-113.28125,-605.46875,-112.3046875,-26.3671875
5,1734037204872.9062,-170.8984375,-546.38671875,-120.60546875,-39.55078125
6,1734037204876.8125,-44.921875,-711.9140625,-128.90625,-35.64453125
7,1734037204880.7188,83.984375,-841.30859375,-165.0390625,-19.53125
8,1734037204884.625,-36.62109375,-1000,-213.37890625,-19.53125
9,1734037204888.5312,-135.25390625,-678.7109375,-84.47265625,-32.2265625
10,1734037204892.4375,-52.24609375,-88.8671875,-33.69140625,-32.71484375
11,1734037204896.3438,82.03125,-399.4140625,-99.12109375,-10.25390625
0,1734037204900.25,55.6640625,-425.78125,-86.9140625,-2.44140625
1,1734037204904.1562,-121.09375,-49.8046875,-56.640625,-20.5078125
2,1734037204908.0625,-145.01953125,-164.0625,-74.70703125,-32.71484375
3,1734037204911.9688,16.6015625,-422.8515625,-92.7734375,-19.04296875
4,1734037204915.875,52.24609375,-382.32421875,-95.703125,-22.4609375
5,1734037204919.7812,-120.1171875,-506.8359375,-119.62890625,-35.15625
6,1734037204923.6875,-180.6640625,-770.01953125,-129.39453125,-37.59765625
7,1734037204927.5938,-41.50390625,-856.4453125,-129.39453125,-33.203125
8,1734037204931.5,81.0546875,-481.4453125,-71.2890625,-20.99609375
9,1734037204935.4062,-44.43359375,-156.25,-63.96484375,-23.4375
10,1734037204939.3125,-143.5546875,-453.125,-144.04296875,-34.66796875
11,1734037204943.2188,-55.6640625,-933.10546875,-192.87109375,-16.6015625
0,1734037204947.125,83.0078125,-591.30859375,-77.63671875,-7.32421875
1,1734037204951.0312,3.90625,-142.578125,-50.78125,-34.1796875
2,1734037204954.9375,-104.98046875,-520.99609375,-126.46484375,-32.2265625
3,1734037204958.8438,-22.4609375,-620.60546875,-89.35546875,-8.30078125
4,1734037204962.75,106.4453125,-252.44140625,-70.3125,-8.7890625
5,1734037204966.6562,81.54296875,-558.10546875,-101.5625,-29.296875
6,1734037204970.5625,-86.42578125,-911.62109375,-134.27734375,-35.64453125
7,1734037204974.4688,-101.07421875,-1000,-136.23046875,-27.83203125
8,1734037204978.375,62.98828125,-567.87109375,-32.71484375,-13.671875
9,1734037204982.2812,101.07421875,-124.51171875,-43.45703125,0.48828125
10,1734037204986.1875,-82.51953125,-570.3125,-129.39453125,-11.71875
11,1734037204990.0938,-154.296875,-580.078125,-107.91015625,-21.97265625
0,1734037204994,-5.859375,-208.984375,-89.35546875,8.30078125
1,1734037204997.9062,91.30859375,-550.78125,-136.71875,11.71875
2,1734037205001.8125,-80.078125,-836.42578125,-132.32421875,-41.015625
3,1734037205005.7188,-162.59765625,-504.8828125,-67.3828125,-46.875
4,1734037205009.625,-47.36328125,-208.0078125,-54.19921875,-10.7421875
5,1734037205013.5312,62.01171875,-575.1953125,-119.62890625,-2.44140625
6,1734037205017.4375,-38.57421875,-938.96484375,-154.296875,-31.73828125
7,1734037205021.3438,-189.453125,-653.3203125,-91.30859375,-45.41015625
8,1734037205025.25,-123.53515625,-169.43359375,-49.31640625,-23.92578125
9,1734037205029.1562,47.36328125,-439.453125,-107.91015625,-3.90625
10,1734037205033.0625,67.3828125,-707.51953125,-124.0234375,-0.48828125
11,1734037205036.9688,-114.2578125,-434.08203125,-113.28125,-40.52734375
0,1734037205040.875,-151.85546875,-345.703125,-119.140625,-60.546875
1,1734037205044.7812,10.25390625,-533.69140625,-125,-30.76171875
2,1734037205048.6875,88.8671875,-657.2265625,-136.23046875,-13.18359375
3,1734037205052.5938,-58.59375,-580.56640625,-113.28125,-24.4140625
4,1734037205056.5,-155.2734375,-638.671875,-85.9375,-54.19921875
5,1734037205060.4062,-41.015625,-772.94921875,-128.90625,-33.69140625
6,1734037205064.3125,95.21484375,-993.1640625,-154.296875,17.578125
7,1734037205068.2188,-1.953125,-919.43359375,-66.40625,-17.08984375
8,1734037205072.125,-123.53515625,-501.953125,-58.59375,-59.5703125
9,1734037205076.0312,-68.359375,-634.27734375,-145.99609375,-34.66796875
10,1734037205079.9375,89.84375,-788.57421875,-126.46484375,-5.859375
11,1734037205083.8438,44.43359375,-209.9609375,-49.8046875,-15.13671875
0,1734037205087.75,-146.484375,-195.3125,-84.9609375,-49.31640625
1,1734037205091.6562,-135.7421875,-473.14453125,-97.65625,-56.15234375
2,1734037205095.5625,23.92578125,-425.78125,-84.47265625,-35.15625
3,1734037205099.4688,58.59375,-210.9375,-66.89453125,-13.671875
4,1734037205103.375,-97.16796875,-336.9140625,-73.2421875,-19.04296875
5,1734037205107.2812,-153.80859375,-747.55859375,-104.00390625,-41.9921875
6,1734037205111.1875,-3.90625,-858.88671875,-93.75,-27.34375
7,1734037205115.0938,102.05078125,-737.79296875,-74.70703125,-12.6953125
8,1734037205119,-53.22265625,-604.4921875,-83.49609375,-25.87890625
9,1734037205122.9062,-141.11328125,-878.41796875,-134.765625,-20.5078125
10,1734037205126.8125,-10.7421875,-683.59375,-55.6640625,-14.16015625
11,1734037205130.7188,117.67578125,-106.93359375,-10.7421875,-10.7421875
0,1734037205134.625,6.34765625,-395.01953125,-100.5859375,-18.5546875
1,1734037205138.5312,-132.8125,-586.42578125,-110.83984375,-48.828125
2,1734037205142.4375,-46.38671875,-263.18359375,-61.03515625,-41.015625
3,1734037205146.3438,111.81640625,-145.5078125,-71.2890625,-6.8359375
4,1734037205150.25,57.6171875,-469.7265625,-113.28125,-4.39453125
5,1734037205154.1562,-116.69921875,-874.51171875,-122.0703125,-27.34375
6,1734037205158.0625,-112.3046875,-787.109375,-118.1640625,-30.76171875
7,1734037205161.9688,41.9921875,-794.921875,-117.67578125,-15.625
8,1734037205165.875,76.171875,-883.30078125,-134.27734375,0
9,1734037205169.7812,-93.75,-1000,-189.94140625,0.48828125
10,1734037205173.6875,-137.6953125,-732.421875,-93.75,-22.4609375
11,1734037205177.5938,8.7890625,-184.08203125,-24.4140625,-27.83203125
0,1734037205181.5,123.046875,-381.34765625,-52.734375,7.32421875
1,1734037205185.4062,-50.78125,-361.81640625,-50.29296875,-20.5078125
2,1734037205189.3125,-187.01171875,-113.76953125,-45.41015625,-62.5
3,1734037205193.2188,-83.49609375,-206.54296875,-66.89453125,-43.45703125
4,1734037205197.125,58.10546875,-510.25390625,-107.421875,-17.578125
5,1734037205201.0312,1.953125,-679.6875,-103.515625,-14.6484375
6,1734037205204.9375,-127.9296875,-698.73046875,-91.796875,-11.71875
7,1734037205208.8438,-81.0546875,-729.4921875,-124.0234375,1.953125
8,1734037205212.75,83.49609375,-871.58203125,-156.25,4.8828125
9,1734037205216.6562,50.78125,-553.7109375,-85.9375,-29.78515625
10,1734037205220.5625,-127.9296875,-312.01171875,-74.21875,-61.5234375
11,1734037205224.4688,-130.859375,-736.81640625,-125.48828125,-46.875
0,1734037205228.375,18.06640625,-741.2109375,-117.1875,-25.390625
1,1734037205232.2812,91.30859375,-262.6953125,-77.1484375,-7.32421875
2,1734037205236.1875,-63.4765625,-122.0703125,-94.23828125,-24.90234375
3,1734037205240.0938,-137.6953125,-477.05078125,-129.39453125,-34.66796875
4,1734037205244,14.6484375,-617.67578125,-110.83984375,4.39453125
5,1734037205247.9062,108.3984375,-582.03125,-111.328125,6.8359375
6,1734037205251.8125,-44.921875,-786.1328125,-142.578125,-20.99609375
7,1734037205255.7188,-156.25,-926.26953125,-163.0859375,-29.296875
8,1734037205259.625,-61.5234375,-814.453125,-122.0703125,-30.76171875
9,1734037205263.5312,90.8203125,-354.00390625,-67.87109375,-25.87890625
10,1734037205267.4375,11.23046875,-166.50390625,-69.82421875,-29.78515625
11,1734037205271.3438,-158.203125,-630.37109375,-141.11328125,-21.97265625
0,1734037205275.25,-118.1640625,-951.66015625,-158.69140625,6.34765625
1,1734037205279.1562,57.12890625,-634.765625,-74.70703125,8.30078125
2,1734037205283.0625,62.5,-371.09375,-83.49609375,-3.41796875
3,1734037205286.9688,-114.74609375,-583.984375,-107.91015625,-17.578125
4,1734037205290.875,-118.1640625,-564.94140625,-85.9375,-14.6484375
5,1734037205294.7812,52.24609375,-454.1015625,-81.54296875,4.39453125
6,1734037205298.6875,104.98046875,-687.5,-94.7265625,12.6953125
7,1734037205302.5938,-59.08203125,-886.23046875,-123.53515625,15.13671875
8,1734037205306.5,-112.79296875,-571.2890625,-73.73046875,6.8359375
9,1734037205310.4062,1.46484375,-95.703125,-53.22265625,-14.6484375
10,1734037205314.3125,112.79296875,-361.328125,-124.51171875,-4.8828125
11,1734037205318.2188,-3.90625,-594.7265625,-131.34765625,-10.7421875
0,1734037205322.125,-126.953125,-281.25,-95.703125,-37.109375
1,1734037205326.0312,-54.19921875,-132.8125,-83.49609375,-36.62109375
2,1734037205329.9375,78.61328125,-446.77734375,-90.8203125,-17.578125
3,1734037205333.8438,30.76171875,-830.078125,-109.375,-10.7421875
4,1734037205337.75,-106.4453125,-625.48828125,-108.3984375,-18.06640625
5,1734037205341.6562,-75.1953125,-584.47265625,-103.02734375,-22.4609375
6,1734037205345.5625,60.05859375,-876.46484375,-137.6953125,-15.13671875
7,1734037205349.4688,70.80078125,-1000,-116.2109375,-20.99609375
8,1734037205353.375,-79.1015625,-673.828125,-24.4140625,-32.2265625
9,1734037205357.2812,-100.09765625,-164.0625,-37.59765625,-23.4375
10,1734037205361.1875,20.01953125,-584.9609375,-152.83203125,-9.765625
11,1734037205365.0938,82.51953125,-968.26171875,-149.90234375,1.46484375
0,1734037205369,-44.921875,-411.1328125,-13.18359375,-17.08984375
1,1734037205372.9062,-145.01953125,-214.84375,-54.19921875,-43.45703125
2,1734037205376.8125,-26.85546875,-490.234375,-113.28125,-33.203125
3,1734037205380.7188,120.1171875,-363.28125,-80.56640625,-1.46484375
4,1734037205384.625,8.7890625,-264.16015625,-77.1484375,-3.90625
5,1734037205388.5312,-141.6015625,-683.10546875,-118.65234375,-21.97265625
6,1734037205392.4375,-85.9375,-935.546875,-153.80859375,-12.6953125
7,1734037205396.3438,90.8203125,-876.953125,-97.65625,4.39453125
8,1734037205400.25,84.47265625,-412.59765625,-23.92578125,6.8359375
9,1734037205404.1562,-99.609375,-411.1328125,-85.44921875,-6.8359375
10,1734037205408.0625,-103.515625,-755.37109375,-125,-20.99609375
11,1734037205411.9688,81.0546875,-384.765625,-61.5234375,-3.90625
0,1734037205415.875,129.39453125,-118.65234375,-65.4296875,14.6484375
1,1734037205419.7812,-53.22265625,-469.23828125,-129.8828125,-1.46484375
2,1734037205423.6875,-105.95703125,-647.4609375,-144.04296875,-16.6015625
3,1734037205427.5938,10.7421875,-303.22265625,-115.72265625,-21.97265625
4,1734037205431.5,82.51953125,-294.921875,-142.578125,-22.4609375
5,1734037205435.4062,-66.40625,-745.60546875,-207.51953125,-38.0859375
6,1734037205439.3125,-160.15625,-963.37890625,-170.8984375,-37.109375
7,1734037205443.2188,-27.83203125,-801.26953125,-92.28515625,-19.04296875
8,1734037205447.125,115.234375,-744.62890625,-92.7734375,-9.765625
9,1734037205451.0312,-8.7890625,-890.13671875,-150.390625,-22.4609375
10,1734037205454.9375,-157.2265625,-943.84765625,-165.0390625,-37.109375
11,1734037205458.8438,-66.89453125,-432.6171875,-75.1953125,-17.08984375
0,1734037205462.75,66.89453125,-459.9609375,-94.7265625,-3.90625
1,1734037205466.6562,44.43359375,-675.29296875,-99.609375,-20.5078125
2,1734037205470.5625,-90.8203125,-371.58203125,-83.0078125,-28.80859375
3,1734037205474.4688,-100.09765625,-173.33984375,-98.6328125,-22.94921875
4,1734037205478.375,29.296875,-278.3203125,-107.91015625,-16.6015625
5,1734037205482.2812,72.265625,-698.73046875,-120.1171875,-18.5546875
6,1734037205486.1875,-83.0078125,-849.12109375,-112.3046875,-40.52734375
7,1734037205490.0938,-104.00390625,-435.546875,-81.0546875,-25.87890625
8,1734037205494,48.33984375,-368.65234375,-131.34765625,-0.9765625
9,1734037205497.9062,119.62890625,-776.3671875,-175.78125,-4.39453125
10,1734037205501.8125,-20.99609375,-614.2578125,-106.4453125,-14.6484375
11,1734037205505.7188,-114.2578125,-402.83203125,-94.7265625,-22.94921875
0,1734037205509.625,-31.73828125,-604.00390625,-146.484375,-18.06640625
1,1734037205513.5312,99.609375,-711.42578125,-156.25,-0.9765625
2,1734037205517.4375,59.5703125,-346.19140625,-87.40234375,-3.90625
3,1734037205521.3438,-110.83984375,-147.94921875,-89.35546875,-33.69140625
4,1734037205525.25,-98.6328125,-454.1015625,-114.74609375,-37.109375
5,1734037205529.1562,65.91796875,-859.375,-129.39453125,-17.08984375
6,1734037205533.0625,67.3828125,-802.24609375,-141.6015625,-29.78515625
7,1734037205536.9688,-107.91015625,-762.6953125,-145.99609375,-39.55078125
8,1734037205540.875,-121.58203125,-890.13671875,-196.2890625,-24.4140625
9,1734037205544.7812,29.296875,-989.74609375,-209.47265625,-3.41796875
10,1734037205548.6875,84.47265625,-470.703125,-62.98828125,-16.11328125
11,1734037205552.5938,-67.87109375,-82.51953125,-29.78515625,-30.76171875
0,1734037205556.5,-139.6484375,-333.49609375,-96.19140625,-37.59765625
1,1734037205560.4062,-34.1796875,-558.10546875,-113.28125,-37.109375
2,1734037205564.3125,90.33203125,-351.5625,-86.9140625,-21.484375
3,1734037205568.2188,-19.04296875,-158.69140625,-114.2578125,-37.59765625
4,1734037205572.125,-146.484375,-619.140625,-165.0390625,-31.73828125
5,1734037205576.0312,-65.91796875,-812.01171875,-145.5078125,-16.6015625
6,1734037205579.9375,91.30859375,-572.265625,-109.86328125,-6.8359375
7,1734037205583.8438,49.31640625,-539.0625,-113.28125,-4.39453125
8,1734037205587.75,-117.1875,-762.6953125,-161.62109375,-12.6953125
9,1734037205591.6562,-74.70703125,-465.33203125,-117.1875,-11.71875
10,1734037205595.5625,99.609375,68.359375,-67.87109375,0
11,1734037205599.4688,86.42578125,-221.19140625,-122.0703125,-14.6484375
0,1734037205603.375,-62.5,-440.4296875,-117.1875,-22.4609375
1,1734037205607.2812,-85.9375,-92.7734375,-74.70703125,-25.87890625
2,1734037205611.1875,21.97265625,56.640625,-90.33203125,-24.90234375
3,1734037205615.0938,99.12109375,-429.19921875,-143.5546875,-3.41796875
4,1734037205619,-63.4765625,-774.4140625,-150.87890625,-18.06640625
5,1734037205622.9062,-172.36328125,-578.125,-110.3515625,-44.921875
6,1734037205626.8125,-62.01171875,-628.41796875,-81.54296875,-33.203125
7,1734037205630.7188,58.10546875,-783.203125,-117.1875,-4.39453125
8,1734037205634.625,-54.6875,-1000,-158.203125,-0.48828125
9,1734037205638.5312,-158.69140625,-631.8359375,-19.53125,-20.5078125
10,1734037205642.4375,-68.84765625,-53.7109375,0.9765625,-20.5078125
11,1734037205646.3438,86.42578125,-279.296875,-76.66015625,15.13671875
0,1734037205650.25,58.59375,-315.91796875,-84.47265625,5.37109375
1,1734037205654.1562,-109.375,-60.546875,-59.08203125,-26.85546875
2,1734037205658.0625,-123.046875,-112.79296875,-78.125,-24.4140625
3,1734037205661.9688,44.921875,-363.28125,-94.7265625,-0.48828125
4,1734037205665.875,97.16796875,-271.484375,-63.96484375,14.16015625
5,1734037205669.7812,-64.453125,-386.23046875,-81.54296875,1.46484375
6,1734037205673.6875,-97.65625,-630.37109375,-109.86328125,-3.90625
7,1734037205677.5938,61.5234375,-860.3515625,-156.25,39.55078125
8,1734037205681.5,160.15625,-695.80078125,-99.12109375,47.36328125
9,1734037205685.4062,-3.41796875,-120.1171875,-42.48046875,-1.46484375
10,1734037205689.3125,-120.60546875,-334.47265625,-92.7734375,-32.2265625
11,1734037205693.2188,-48.828125,-680.6640625,-106.4453125,-48.33984375
0,1734037205697.125,117.1875,-318.359375,-53.22265625,-33.203125
1,1734037205701.0312,51.7578125,-56.15234375,-60.05859375,-30.76171875
2,1734037205704.9375,-136.23046875,-405.76171875,-124.51171875,-48.33984375
3,1734037205708.8438,-96.6796875,-546.38671875,-123.046875,-50.29296875
4,1734037205712.75,52.24609375,-206.0546875,-90.8203125,-40.52734375
5,1734037205716.6562,4.39453125,-502.44140625,-114.74609375,-46.875
6,1734037205720.5625,-169.921875,-880.859375,-166.50390625,-51.26953125
7,1734037205724.4688,-154.78515625,-981.93359375,-148.92578125,-48.33984375
8,1734037205728.375,21.484375,-756.34765625,-40.0390625,-40.0390625
9,1734037205732.2812,76.66015625,-381.8359375,-47.8515625,-30.2734375
10,1734037205736.1875,-73.73046875,-658.69140625,-137.20703125,-19.53125
11,1734037205740.0938,-138.671875,-790.0390625,-106.4453125,-12.6953125
0,1734037205744,-12.6953125,-162.109375,-25.390625,-29.296875
1,1734037205747.9062,88.37890625,-112.3046875,-81.54296875,-14.6484375
2,1734037205751.8125,-61.5234375,-411.62109375,-111.81640625,-14.6484375
3,1734037205755.7188,-142.578125,-278.80859375,-70.3125,-18.06640625
4,1734037205759.625,-30.2734375,-104.00390625,-70.80078125,1.953125
5,1734037205763.5312,100.09765625,-515.13671875,-116.69921875,11.71875
6,1734037205767.4375,15.625,-911.1328125,-125.9765625,-8.7890625
7,1734037205771.3438,-119.62890625,-571.77734375,-43.9453125,-33.69140625
8,1734037205775.25,-51.7578125,-58.59375,0.48828125,-7.32421875
9,1734037205779.1562,105.46875,-256.8359375,-78.61328125,15.625
10,1734037205783.0625,81.0546875,-567.87109375,-121.09375,-14.6484375
11,1734037205786.9688,-102.5390625,-580.56640625,-104.00390625,-51.7578125
0,1734037205790.875,-106.93359375,-272.94921875,-63.4765625,-45.41015625
1,1734037205794.7812,39.55078125,-402.34375,-119.62890625,-25.390625
2,1734037205798.6875,103.515625,-771.97265625,-150.87890625,-20.01953125
3,1734037205802.5938,-36.62109375,-307.12890625,-70.80078125,-44.43359375
4,1734037205806.5,-107.91015625,-145.01953125,-85.44921875,-43.45703125
5,1734037205810.4062,-26.85546875,-666.015625,-163.57421875,-24.90234375
6,1734037205814.3125,92.7734375,-931.640625,-130.859375,-21.484375
7,1734037205818.2188,-1.953125,-755.859375,-60.546875,-50.29296875
8,1734037205822.125,-118.1640625,-469.23828125,-75.68359375,-53.7109375
9,1734037205826.0312,-49.8046875,-639.16015625,-161.1328125,-31.73828125
10,1734037205829.9375,78.125,-791.9921875,-148.4375,-18.5546875
11,1734037205833.8438,3.90625,-197.265625,-40.52734375,-54.19921875
0,1734037205837.75,-160.15625,-120.60546875,-96.6796875,-84.9609375
1,1734037205841.6562,-88.8671875,-550.29296875,-125.9765625,-54.19921875
2,1734037205845.5625,99.609375,-575.68359375,-84.9609375,-17.08984375
3,1734037205849.4688,115.234375,-175.78125,-80.078125,-20.01953125
4,1734037205853.375,-54.6875,-218.26171875,-91.30859375,-32.2265625
5,1734037205857.2812,-108.3984375,-714.84375,-138.18359375,-24.90234375
6,1734037205861.1875,18.06640625,-898.4375,-105.46875,-19.04296875
7,1734037205865.0938,105.46875,-381.8359375,-30.2734375,-11.71875
8,1734037205869,-46.38671875,-298.828125,-82.51953125,-16.6015625
9,1734037205872.9062,-129.39453125,-669.921875,-114.74609375,-20.99609375
10,1734037205876.8125,-19.04296875,-365.72265625,-57.6171875,-12.20703125
11,1734037205880.7188,116.69921875,-126.953125,-55.17578125,2.9296875
0,1734037205884.625,26.3671875,-589.35546875,-111.328125,-8.30078125
1,1734037205888.5312,-110.83984375,-636.23046875,-101.5625,-28.80859375
2,1734037205892.4375,-24.90234375,-201.66015625,-61.5234375,-7.8125
3,1734037205896.3438,117.1875,-166.9921875,-89.84375,4.39453125
4,1734037205900.25,36.62109375,-640.13671875,-167.48046875,-31.25
5,1734037205904.1562,-130.37109375,-943.84765625,-160.15625,-48.33984375
6,1734037205908.0625,-97.16796875,-704.58984375,-93.26171875,-43.45703125
7,1734037205911.9688,36.62109375,-655.76171875,-92.7734375,-41.9921875
8,1734037205915.875,76.171875,-859.375,-143.5546875,-19.04296875
9,1734037205919.7812,-88.8671875,-997.0703125,-177.24609375,-35.15625
10,1734037205923.6875,-125.9765625,-467.28515625,-66.89453125,-54.6875
11,1734037205927.5938,32.71484375,-59.5703125,-42.48046875,-34.1796875
0,1734037205931.5,110.83984375,-341.796875,-75.68359375,-29.296875
1,1734037205935.4062,-44.921875,-342.7734375,-78.125,-63.4765625
2,1734037205939.3125,-129.39453125,-89.35546875,-93.26171875,-64.94140625
3,1734037205943.2188,-30.76171875,-128.41796875,-110.83984375,-42.48046875
4,1734037205947.125,112.79296875,-451.66015625,-124.51171875,-14.16015625
5,1734037205951.0312,51.26953125,-697.75390625,-120.60546875,-3.90625
6,1734037205954.9375,-97.16796875,-659.1796875,-105.46875,-22.94921875
7,1734037205958.8438,-20.99609375,-611.81640625,-101.07421875,-11.23046875
8,1734037205962.75,113.76953125,-922.8515625,-184.08203125,-2.44140625
9,1734037205966.6562,89.35546875,-776.85546875,-130.859375,-20.01953125
10,1734037205970.5625,-48.828125,-104.98046875,-13.18359375,-42.48046875
11,1734037205974.4688,-75.1953125,-229.00390625,-77.63671875,-32.2265625
0,1734037205978.375,65.4296875,-426.7578125,-101.5625,-21.484375
1,1734037205982.2812,134.27734375,-119.140625,-72.75390625,-15.625
2,1734037205986.1875,-27.83203125,-17.08984375,-116.2109375,-20.5078125
3,1734037205990.0938,-120.1171875,-341.30859375,-156.73828125,-32.2265625
4,1734037205994,2.44140625,-508.7890625,-132.32421875,-32.71484375
5,1734037205997.9062,115.72265625,-487.3046875,-128.41796875,-28.3203125
6,1734037206001.8125,-24.4140625,-674.31640625,-121.09375,-31.73828125
7,1734037206005.7188,-137.20703125,-825.68359375,-146.97265625,-22.4609375
8,1734037206009.625,-65.4296875,-1000,-171.875,-18.06640625
9,1734037206013.5312,81.0546875,-700.68359375,-48.33984375,-25.390625
10,1734037206017.4375,34.1796875,-133.30078125,-34.66796875,-27.34375
11,1734037206021.3438,-127.9296875,-442.3828125,-105.46875,-31.25
0,1734037206025.25,-92.7734375,-453.125,-94.7265625,-32.2265625
1,1734037206029.1562,80.56640625,-1.953125,-86.9140625,-9.27734375
2,1734037206033.0625,60.546875,-47.36328125,-100.5859375,-13.18359375
3,1734037206036.9688,-111.328125,-361.81640625,-91.796875,-40.0390625
4,1734037206040.875,-109.86328125,-295.8984375,-65.4296875,-27.34375
5,1734037206044.7812,41.9921875,-339.84375,-95.703125,-4.39453125
6,1734037206048.6875,118.1640625,-637.20703125,-142.578125,6.8359375
7,1734037206052.5938,-49.31640625,-836.42578125,-162.59765625,-12.20703125
8,1734037206056.5,-122.55859375,-537.59765625,-78.125,-38.57421875
9,1734037206060.4062,7.8125,22.4609375,-33.203125,-30.2734375
10,1734037206064.3125,120.1171875,-176.7578125,-105.46875,4.39453125
11,1734037206068.2188,-8.7890625,-648.4375,-135.7421875,-13.671875
0,1734037206072.125,-114.2578125,-376.46484375,-82.51953125,-37.109375
1,1734037206076.0312,-15.13671875,46.875,-56.15234375,-14.16015625
2,1734037206079.9375,116.69921875,-385.7421875,-135.7421875,18.06640625
3,1734037206083.8438,60.546875,-751.953125,-154.78515625,15.13671875
4,1734037206087.75,-92.28515625,-283.203125,-92.7734375,-26.3671875
5,1734037206091.6562,-64.94140625,-378.90625,-76.66015625,-14.16015625
6,1734037206095.5625,78.61328125,-782.2265625,-115.72265625,19.04296875
7,1734037206099.4688,92.28515625,-1000,-143.5546875,16.11328125
8,1734037206103.375,-46.875,-710.44921875,-34.66796875,-4.8828125
9,1734037206107.2812,-108.88671875,-148.4375,-73.73046875,-30.76171875
10,1734037206111.1875,1.46484375,-503.90625,-166.50390625,-29.78515625
11,1734037206115.0938,104.98046875,-593.75,-90.8203125,-17.578125
0,1734037206119,-26.85546875,-70.80078125,-34.66796875,-28.80859375
1,1734037206122.9062,-137.6953125,-188.96484375,-96.6796875,-32.71484375
2,1734037206126.8125,-55.6640625,-644.04296875,-142.08984375,-34.1796875
3,1734037206130.7188,67.3828125,-464.35546875,-83.49609375,-36.1328125
4,1734037206134.625,-15.625,-118.1640625,-69.3359375,-50.29296875
5,1734037206138.5312,-129.39453125,-465.33203125,-120.60546875,-57.6171875
6,1734037206142.4375,-62.01171875,-876.46484375,-153.80859375,-41.015625
7,1734037206146.3438,88.8671875,-578.125,-87.40234375,-23.92578125
8,1734037206150.25,56.640625,-57.6171875,-42.48046875,-37.59765625
9,1734037206154.1562,-120.1171875,-284.1796875,-115.234375,-54.6875
10,1734037206158.0625,-83.984375,-530.2734375,-126.953125,-19.04296875
11,1734037206161.9688,79.1015625,-238.76953125,-100.09765625,8.30078125
0,1734037206165.875,59.08203125,-69.3359375,-93.26171875,-14.6484375
1,1734037206169.7812,-95.703125,-416.9921875,-96.19140625,-21.97265625
2,1734037206173.6875,-134.765625,-562.5,-105.46875,-28.3203125
3,1734037206177.5938,-3.90625,-246.58203125,-100.09765625,-20.5078125
4,1734037206181.5,106.4453125,-479.4921875,-104.4921875,-4.39453125
5,1734037206185.4062,-30.2734375,-855.95703125,-152.83203125,-8.7890625
6,1734037206189.3125,-147.94921875,-958.984375,-189.94140625,-6.8359375
7,1734037206193.2188,-41.50390625,-811.03515625,-84.47265625,-2.44140625
8,1734037206197.125,111.81640625,-464.84375,-64.94140625,5.37109375
9,1734037206201.0312,20.5078125,-557.12890625,-135.7421875,1.46484375
10,1734037206204.9375,-133.30078125,-571.77734375,-128.90625,-27.34375
11,1734037206208.8438,-83.0078125,-146.484375,-93.26171875,-34.1796875
0,1734037206212.75,68.84765625,-129.8828125,-108.88671875,-16.11328125
1,1734037206216.6562,51.26953125,-561.5234375,-143.06640625,-23.92578125
2,1734037206220.5625,-105.46875,-549.8046875,-85.44921875,-28.80859375
3,1734037206224.4688,-115.234375,-159.1796875,-44.921875,-38.57421875
4,1734037206228.375,16.11328125,-225.09765625,-82.03125,-41.50390625
5,1734037206232.2812,63.4765625,-690.91796875,-105.95703125,-27.34375
6,1734037206236.1875,-97.65625,-856.4453125,-103.02734375,-38.57421875
7,1734037206240.0938,-163.0859375,-620.1171875,-87.890625,-58.59375
8,1734037206244,-44.43359375,-447.265625,-99.609375,-54.19921875
9,1734037206247.9062,47.8515625,-797.36328125,-166.9921875,-32.71484375
10,1734037206251.8125,-82.51953125,-716.30859375,-105.46875,-50.78125
11,1734037206255.7188,-176.26953125,-67.3828125,-27.34375,-65.91796875
0,1734037206259.625,-65.91796875,-270.99609375,-102.05078125,-32.2265625
1,1734037206263.5312,90.33203125,-485.83984375,-123.046875,5.859375
2,1734037206267.4375,35.15625,-186.03515625,-54.6875,12.20703125
3,1734037206271.3438,-110.83984375,-73.2421875,-58.59375,-18.5546875
4,1734037206275.25,-76.66015625,-404.296875,-121.58203125,-6.34765625
5,1734037206279.1562,61.03515625,-831.0546875,-149.90234375,10.25390625
6,1734037206283.0625,69.3359375,-745.60546875,-104.98046875,15.13671875
7,1734037206286.9688,-120.1171875,-697.75390625,-61.5234375,-6.8359375
8,1734037206290.875,-171.875,-841.30859375,-104.98046875,-34.66796875
9,1734037206294.7812,-26.85546875,-1000,-167.96875,-7.32421875
10,1734037206298.6875,55.17578125,-731.4453125,-58.10546875,-1.953125
11,1734037206302.5938,-101.5625,-208.984375,-21.484375,-32.71484375
0,1734037206306.5,-174.31640625,-413.0859375,-92.7734375,-32.2265625
1,1734037206310.4062,-32.2265625,-328.125,-80.56640625,-8.7890625
2,1734037206314.3125,75.1953125,-44.921875,-96.19140625,-11.71875
3,1734037206318.2188,-47.8515625,-138.671875,-119.62890625,-40.52734375
4,1734037206322.125,-164.0625,-421.875,-117.67578125,-50.29296875
5,1734037206326.0312,-48.828125,-638.671875,-132.32421875,-26.3671875
6,1734037206329.9375,109.375,-610.83984375,-106.4453125,-1.46484375
7,1734037206333.8438,-10.7421875,-448.73046875,-85.9375,-33.203125
8,1734037206337.75,-181.15234375,-640.13671875,-97.16796875,-58.59375
9,1734037206341.6562,-113.76953125,-427.24609375,-60.546875,-44.921875
10,1734037206345.5625,52.24609375,-9.765625,-77.63671875,-27.83203125
11,1734037206349.4688,57.12890625,-316.40625,-133.30078125,-19.04296875
0,1734037206353.375,-113.28125,-890.625,-174.31640625,-35.15625
1,1734037206357.2812,-124.0234375,-515.13671875,-80.56640625,-30.2734375
2,1734037206361.1875,52.734375,47.36328125,-54.19921875,7.32421875
3,1734037206365.0938,108.88671875,-284.66796875,-133.7890625,10.25390625
4,1734037206369,-70.80078125,-443.359375,-114.2578125,-30.2734375
5,1734037206372.9062,-142.08984375,-368.65234375,-69.3359375,-29.78515625
6,1734037206376.8125,-17.578125,-575.68359375,-60.546875,-9.27734375
7,1734037206380.7188,119.140625,-779.78515625,-115.234375,21.97265625
8,1734037206384.625,-2.44140625,-1000,-159.1796875,22.4609375
9,1734037206388.5312,-129.8828125,-483.3984375,-29.78515625,-10.25390625
10,1734037206392.4375,-63.4765625,26.3671875,-18.06640625,-18.5546875
11,1734037206396.3438,62.01171875,-287.109375,-95.703125,-21.97265625
0,1734037206400.25,41.9921875,-277.34375,-77.63671875,-14.16015625
1,1734037206404.1562,-111.328125,-69.3359375,-67.87109375,-8.30078125
2,1734037206408.0625,-113.28125,-356.4453125,-110.3515625,-10.7421875
3,1734037206411.9688,38.57421875,-658.203125,-110.3515625,-6.34765625
4,1734037206415.875,79.1015625,-435.546875,-76.66015625,-19.53125
5,1734037206419.7812,-98.6328125,-388.18359375,-87.890625,-42.48046875
6,1734037206423.6875,-137.6953125,-618.1640625,-77.63671875,-34.66796875
7,1734037206427.5938,9.27734375,-818.359375,-117.67578125,-13.671875
8,1734037206431.5,118.65234375,-575.68359375,-100.5859375,-7.8125
9,1734037206435.4062,0,-13.18359375,-45.41015625,-35.15625
10,1734037206439.3125,-100.09765625,-247.55859375,-109.375,-41.50390625
11,1734037206443.2188,-3.90625,-494.62890625,-129.8828125,-26.85546875
0,1734037206447.125,137.6953125,-183.10546875,-77.63671875,-18.06640625
1,1734037206451.0312,43.45703125,-41.50390625,-82.03125,-27.83203125
2,1734037206454.9375,-114.2578125,-383.30078125,-108.88671875,-41.015625
3,1734037206458.8438,-40.52734375,-513.18359375,-113.76953125,-24.90234375
4,1734037206462.75,132.8125,-360.83984375,-128.41796875,6.34765625
5,1734037206466.6562,105.46875,-641.6015625,-92.28515625,-10.25390625
6,1734037206470.5625,-96.6796875,-835.44921875,-120.1171875,-48.828125
7,1734037206474.4688,-124.51171875,-1000,-198.2421875,-31.25
8,1734037206478.375,32.2265625,-729.00390625,-78.61328125,-27.34375
9,1734037206482.2812,86.42578125,-161.1328125,-29.296875,-44.43359375
10,1734037206486.1875,-83.984375,-468.75,-100.09765625,-46.875
11,1734037206490.0938,-143.06640625,-524.4140625,-72.75390625,-54.19921875
0,1734037206494,15.13671875,-97.65625,-30.76171875,-29.78515625
1,1734037206497.9062,135.7421875,-136.23046875,-80.078125,2.44140625
2,1734037206501.8125,4.8828125,-571.77734375,-129.39453125,-16.6015625
3,1734037206505.7188,-100.09765625,-474.609375,-79.58984375,-37.109375
4,1734037206509.625,-10.25390625,-131.34765625,-65.4296875,-26.85546875
5,1734037206513.5312,111.81640625,-541.015625,-107.91015625,-6.8359375
6,1734037206517.4375,9.765625,-870.1171875,-136.71875,-11.23046875
7,1734037206521.3438,-131.34765625,-818.359375,-97.16796875,-28.3203125
8,1734037206525.25,-60.546875,-431.15234375,-36.62109375,-27.34375
9,1734037206529.1562,74.21875,-323.2421875,-75.1953125,-8.7890625
10,1734037206533.0625,48.33984375,-783.203125,-120.1171875,-30.76171875
11,1734037206536.9688,-84.47265625,-496.58203125,-50.29296875,-53.7109375
0,1734037206540.875,-65.91796875,-31.25,-33.203125,-31.25
1,1734037206544.7812,54.19921875,-340.33203125,-117.1875,-10.25390625
2,1734037206548.6875,129.8828125,-543.9453125,-130.859375,-1.46484375
3,1734037206552.5938,-2.44140625,-227.5390625,-71.77734375,-19.04296875
4,1734037206556.5,-101.07421875,-138.18359375,-83.49609375,-48.33984375
5,1734037206560.4062,-6.34765625,-599.609375,-152.83203125,-39.0625
6,1734037206564.3125,106.93359375,-948.2421875,-157.2265625,-19.04296875
7,1734037206568.2188,-9.27734375,-781.73828125,-100.09765625,-43.9453125
8,1734037206572.125,-140.625,-517.08984375,-88.37890625,-50.78125
9,1734037206576.0312,-60.546875,-593.26171875,-118.1640625,-41.50390625
10,1734037206579.9375,96.6796875,-563.96484375,-87.890625,-26.3671875
11,1734037206583.8438,46.38671875,-162.59765625,-70.3125,-19.53125
0,1734037206587.75,-101.07421875,-103.02734375,-109.375,-31.73828125
1,1734037206591.6562,-90.33203125,-625.48828125,-152.34375,-19.04296875
2,1734037206595.5625,35.64453125,-903.80859375,-93.26171875,-12.6953125
3,1734037206599.4688,63.96484375,-295.41015625,-5.37109375,-32.71484375
4,1734037206603.375,-94.7265625,-146.484375,-66.89453125,-42.96875
5,1734037206607.2812,-128.90625,-660.64453125,-101.07421875,-28.80859375
6,1734037206611.1875,28.80859375,-819.82421875,-87.40234375,-14.16015625
7,1734037206615.0938,133.30078125,-319.82421875,-38.0859375,7.8125
8,1734037206619,-49.8046875,-252.9296875,-80.56640625,-11.23046875
9,1734037206622.9062,-180.17578125,-760.7421875,-138.671875,-46.875
10,1734037206626.8125,-77.1484375,-479.98046875,-58.59375,-58.10546875
11,1734037206630.7188,67.87109375,-217.7734375,-52.24609375,-35.15625
0,1734037206634.625,-30.76171875,-717.28515625,-121.58203125,-29.296875
1,1734037206638.5312,-178.7109375,-730.46875,-113.76953125,-48.33984375
2,1734037206642.4375,-83.0078125,-264.6484375,-46.38671875,-11.71875
3,1734037206646.3438,62.01171875,-98.6328125,-64.94140625,6.8359375
4,1734037206650.25,-9.27734375,-458.49609375,-113.76953125,-25.87890625
5,1734037206654.1562,-177.734375,-858.3984375,-111.328125,-53.22265625
6,1734037206658.0625,-159.1796875,-729.00390625,-79.1015625,-45.8984375
7,1734037206661.9688,11.23046875,-682.12890625,-85.9375,-31.25
8,1734037206665.875,24.4140625,-861.328125,-131.34765625,-16.11328125
9,1734037206669.7812,-166.9921875,-1000,-125.48828125,-32.71484375
10,1734037206673.6875,-219.7265625,-519.53125,-14.16015625,-71.77734375
11,1734037206677.5938,-88.37890625,-106.93359375,-20.99609375,-66.40625
0,1734037206681.5,18.5546875,-377.44140625,-63.96484375,-43.9453125
1,1734037206685.4062,-124.51171875,-424.31640625,-64.94140625,-62.01171875
2,1734037206689.3125,-208.984375,-447.75390625,-76.66015625,-46.38671875
3,1734037206693.2188,-87.890625,-352.5390625,-96.6796875,-12.20703125
4,1734037206697.125,24.90234375,-572.75390625,-129.39453125,-18.06640625
5,1734037206701.0312,-64.94140625,-864.74609375,-84.9609375,-36.1328125
6,1734037206704.9375,-186.5234375,-658.69140625,-42.96875,-33.203125
7,1734037206708.8438,-108.88671875,-426.26953125,-76.171875,-7.32421875
8,1734037206712.75,53.22265625,-703.125,-138.671875,15.13671875
9,1734037206716.6562,37.59765625,-614.2578125,-55.17578125,7.8125
10,1734037206720.5625,-132.32421875,-44.43359375,-7.8125,-32.2265625
11,1734037206724.4688,-149.4140625,-302.734375,-84.47265625,-35.64453125
0,1734037206728.375,-3.41796875,-541.015625,-98.14453125,-11.23046875
1,1734037206732.2812,40.0390625,-218.26171875,-82.03125,-26.3671875
2,1734037206736.1875,-118.1640625,-93.75,-102.05078125,-53.7109375
3,1734037206740.0938,-167.96875,-415.0390625,-106.93359375,-52.24609375
4,1734037206744,-39.0625,-697.265625,-86.42578125,-38.0859375
5,1734037206747.9062,64.453125,-648.4375,-62.5,-20.01953125
6,1734037206751.8125,-63.96484375,-730.46875,-68.359375,-34.66796875
7,1734037206755.7188,-167.96875,-843.75,-152.34375,-49.31640625
8,1734037206759.625,-81.54296875,-1000,-244.62890625,-22.94921875
9,1734037206763.5312,85.9375,-733.3984375,-101.07421875,1.953125
10,1734037206767.4375,10.7421875,-139.16015625,-18.06640625,-38.0859375
11,1734037206771.3438,-156.73828125,-345.21484375,-69.82421875,-62.98828125
0,1734037206775.25,-117.67578125,-336.42578125,-26.85546875,-49.31640625
1,1734037206779.1562,30.2734375,-76.171875,-30.76171875,-37.59765625
2,1734037206783.0625,24.4140625,-171.875,-85.9375,-41.50390625
3,1734037206786.9688,-133.7890625,-391.6015625,-102.5390625,-60.546875
4,1734037206790.875,-116.69921875,-333.984375,-83.0078125,-41.9921875
5,1734037206794.7812,42.48046875,-434.5703125,-105.95703125,-7.8125
6,1734037206798.6875,90.8203125,-743.65234375,-129.8828125,5.37109375
7,1734037206802.5938,-55.6640625,-848.14453125,-112.79296875,0
8,1734037206806.5,-108.3984375,-495.60546875,-73.2421875,5.859375
9,1734037206810.4062,12.20703125,-76.66015625,-73.2421875,27.83203125
10,1734037206814.3125,123.046875,-273.4375,-125.48828125,34.1796875
11,1734037206818.2188,9.27734375,-870.60546875,-175.29296875,35.64453125
0,1734037206822.125,-110.83984375,-647.4609375,-100.09765625,11.23046875
1,1734037206826.0312,-63.4765625,-92.28515625,-68.84765625,-29.78515625
2,1734037206829.9375,68.359375,-385.7421875,-114.74609375,-10.7421875
3,1734037206833.8438,27.34375,-561.5234375,-96.19140625,-5.859375
4,1734037206837.75,-145.5078125,-283.203125,-79.58984375,-26.85546875
5,1734037206841.6562,-124.0234375,-482.421875,-83.984375,-24.90234375
6,1734037206845.5625,30.2734375,-843.75,-126.953125,-11.71875
7,1734037206849.4688,56.640625,-994.62890625,-127.44140625,-0.9765625
8,1734037206853.375,-96.6796875,-527.83203125,-44.921875,-33.203125
9,1734037206857.2812,-155.76171875,-278.3203125,-46.875,-51.7578125
10,1734037206861.1875,-25.87890625,-799.31640625,-131.8359375,-19.53125
11,1734037206865.0938,58.10546875,-841.796875,-128.41796875,-19.53125
0,1734037206869,-98.6328125,-223.6328125,-10.7421875,-68.359375
1,1734037206872.9062,-190.4296875,-79.1015625,-27.34375,-78.61328125
2,1734037206876.8125,-75.68359375,-332.51953125,-54.6875,-54.6875
3,1734037206880.7188,70.3125,-217.28515625,-45.8984375,-29.78515625
4,1734037206884.625,-9.765625,-83.49609375,-51.26953125,-20.99609375
5,1734037206888.5312,-145.01953125,-432.6171875,-88.37890625,-19.53125
6,1734037206892.4375,-71.2890625,-861.81640625,-136.23046875,0
7,1734037206896.3438,106.4453125,-598.14453125,-66.40625,15.13671875
8,1734037206900.25,71.2890625,-26.85546875,-23.92578125,-9.765625
9,1734037206904.1562,-92.28515625,-200.68359375,-94.23828125,-2.9296875
10,1734037206908.0625,-100.09765625,-416.015625,-115.234375,-2.44140625
11,1734037206911.9688,22.4609375,-262.20703125,-74.21875,-17.08984375
0,1734037206915.875,45.41015625,-350.5859375,-50.29296875,-12.6953125
1,1734037206919.7812,-108.88671875,-588.8671875,-86.42578125,-14.6484375
2,1734037206923.6875,-166.015625,-703.61328125,-122.0703125,-15.13671875
3,1734037206927.5938,-35.15625,-282.2265625,-67.87109375,-3.41796875
4,1734037206931.5,48.828125,-136.71875,-73.2421875,-9.27734375
5,1734037206935.4062,-96.19140625,-627.9296875,-145.5078125,-26.85546875
6,1734037206939.3125,-188.96484375,-943.359375,-130.37109375,-30.2734375
7,1734037206943.2188,-85.44921875,-739.2578125,-91.796875,-31.25
8,1734037206947.125,76.171875,-677.734375,-107.421875,-3.90625
9,1734037206951.0312,-11.23046875,-882.32421875,-141.6015625,-4.39453125
10,1734037206954.9375,-194.82421875,-812.01171875,-104.4921875,-36.1328125
11,1734037206958.8438,-143.06640625,-268.5546875,-13.671875,-41.015625
0,1734037206962.75,11.71875,-93.26171875,-62.5,-35.64453125
1,1734037206966.6562,-18.5546875,-562.01171875,-114.74609375,-36.1328125
2,1734037206970.5625,-165.0390625,-916.9921875,-83.49609375,-38.57421875
3,1734037206974.4688,-146.484375,-456.54296875,-34.66796875,-40.52734375
4,1734037206978.375,20.01953125,-133.30078125,-56.15234375,-32.2265625
5,1734037206982.2812,60.05859375,-669.921875,-139.16015625,0.9765625
6,1734037206986.1875,-105.46875,-982.421875,-128.41796875,-9.27734375
7,1734037206990.0938,-158.203125,-377.9296875,-76.66015625,-55.6640625
8,1734037206994,-33.69140625,-192.3828125,-101.07421875,-38.0859375
9,1734037206997.9062,78.125,-614.2578125,-88.37890625,-1.953125
10,1734037207001.8125,-62.98828125,-413.57421875,-39.55078125,-28.3203125
11,1734037207005.7188,-166.015625,-77.63671875,-41.50390625,-40.0390625
0,1734037207009.625,-67.87109375,-353.515625,-106.93359375,-20.99609375
1,1734037207013.5312,70.3125,-522.94921875,-115.72265625,-0.9765625
2,1734037207017.4375,-0.48828125,-228.515625,-71.2890625,3.41796875
3,1734037207021.3438,-155.2734375,-146.97265625,-63.96484375,-4.8828125
4,1734037207025.25,-134.765625,-546.875,-99.609375,-11.71875
5,1734037207029.1562,12.6953125,-944.82421875,-125.9765625,-0.9765625
6,1734037207033.0625,33.203125,-810.05859375,-101.5625,1.46484375
7,1734037207036.9688,-127.44140625,-773.4375,-95.703125,-19.04296875
8,1734037207040.875,-146.97265625,-950.68359375,-142.578125,-12.6953125
9,1734037207044.7812,51.7578125,-746.09375,-122.55859375,22.94921875
10,1734037207048.6875,166.50390625,-229.4921875,-45.8984375,50.29296875
11,1734037207052.5938,-4.39453125,-121.09375,-40.0390625,26.85546875
0,1734037207056.5,-133.30078125,-603.515625,-145.99609375,-12.6953125
1,1734037207060.4062,-48.33984375,-998.53515625,-166.015625,-24.90234375
2,1734037207064.3125,94.23828125,-439.453125,-14.6484375,-35.15625
3,1734037207068.2188,-22.4609375,-159.1796875,-29.78515625,-45.41015625
4,1734037207072.125,-144.04296875,-423.33984375,-106.4453125,-46.38671875
5,1734037207076.0312,-57.12890625,-573.2421875,-106.4453125,-34.1796875
6,1734037207079.9375,98.14453125,-649.4140625,-67.87109375,-11.71875
7,1734037207083.8438,40.52734375,-605.95703125,-59.08203125,-30.2734375
8,1734037207087.75,-146.484375,-878.41796875,-141.6015625,-43.9453125
9,1734037207091.6562,-109.86328125,-789.55078125,-102.05078125,-31.73828125
10,1734037207095.5625,57.12890625,-78.61328125,-34.66796875,-26.85546875
11,1734037207099.4688,72.265625,-249.51171875,-119.62890625,-22.4609375
0,1734037207103.375,-89.35546875,-487.79296875,-116.69921875,-52.24609375
1,1734037207107.2812,-119.62890625,-131.34765625,-76.66015625,-60.546875
2,1734037207111.1875,30.76171875,1.953125,-75.68359375,-25.390625
3,1734037207115.0938,97.16796875,-347.16796875,-117.67578125,-4.8828125
4,1734037207119,-39.55078125,-562.98828125,-145.5078125,-11.23046875
5,1734037207122.9062,-110.3515625,-479.4921875,-107.421875,-18.06640625
6,1734037207126.8125,-26.3671875,-625.9765625,-66.89453125,-22.94921875
7,1734037207130.7188,76.171875,-818.359375,-122.55859375,-22.94921875
8,1734037207134.625,-14.16015625,-991.2109375,-198.73046875,-32.2265625
9,1734037207138.5312,-122.0703125,-733.3984375,-113.76953125,-45.41015625
10,1734037207142.4375,-21.484375,-317.87109375,-54.19921875,-32.71484375
11,1734037207146.3438,118.1640625,-550.29296875,-103.02734375,-16.11328125
0,1734037207150.25,89.35546875,-603.02734375,-106.4453125,-17.08984375
1,1734037207154.1562,-61.5234375,-75.68359375,-46.875,-29.296875
2,1734037207158.0625,-83.984375,-115.234375,-73.73046875,-26.85546875
3,1734037207161.9688,75.68359375,-427.734375,-108.88671875,2.9296875
4,1734037207165.875,109.86328125,-374.51171875,-89.35546875,8.30078125
5,1734037207169.7812,-76.66015625,-438.96484375,-106.4453125,-20.99609375
6,1734037207173.6875,-130.859375,-718.26171875,-109.86328125,-35.15625
7,1734037207177.5938,-1.46484375,-880.37109375,-121.58203125,-27.34375
8,1734037207181.5,98.6328125,-561.03515625,-68.84765625,-17.08984375
9,1734037207185.4062,-25.390625,-51.26953125,-29.78515625,-31.73828125
10,1734037207189.3125,-135.7421875,-251.46484375,-88.8671875,-41.50390625
11,1734037207193.2188,-43.9453125,-487.3046875,-112.3046875,-28.3203125
0,1734037207197.125,103.02734375,-487.3046875,-101.07421875,0.48828125
1,1734037207201.0312,31.73828125,-261.23046875,-81.0546875,-1.46484375
2,1734037207204.9375,-122.0703125,-436.5234375,-121.58203125,-17.08984375
3,1734037207208.8438,-87.40234375,-740.234375,-132.32421875,-14.16015625
4,1734037207212.75,79.1015625,-298.828125,-76.66015625,3.41796875
5,1734037207216.6562,61.03515625,-442.87109375,-93.75,-13.18359375
6,1734037207220.5625,-116.69921875,-817.3828125,-140.13671875,-44.43359375
7,1734037207224.4688,-115.72265625,-1000,-169.921875,-9.765625
8,1734037207228.375,37.109375,-594.23828125,-56.640625,0.9765625
9,1734037207232.2812,82.03125,-39.0625,-25.87890625,-21.97265625
10,1734037207236.1875,-68.359375,-403.80859375,-90.33203125,-36.1328125
11,1734037207240.0938,-113.28125,-434.5703125,-92.28515625,-34.1796875
0,1734037207244,31.73828125,-44.921875,-83.984375,-1.953125
1,1734037207247.9062,144.53125,-75.1953125,-90.33203125,12.6953125
2,1734037207251.8125,13.671875,-527.83203125,-116.2109375,-23.92578125
3,1734037207255.7188,-103.02734375,-549.8046875,-84.9609375,-42.96875
4,1734037207259.625,-10.7421875,-115.72265625,-70.80078125,-8.30078125
5,1734037207263.5312,141.6015625,-360.3515625,-97.65625,18.5546875
6,1734037207267.4375,66.89453125,-899.4140625,-150.87890625,7.8125
7,1734037207271.3438,-117.67578125,-789.55078125,-100.5859375,-25.87890625
8,1734037207275.25,-99.12109375,-120.60546875,-5.859375,-51.26953125
9,1734037207279.1562,56.640625,-166.015625,-89.84375,-35.64453125
10,1734037207283.0625,66.89453125,-486.328125,-112.79296875,-22.4609375
11,1734037207286.9688,-76.171875,-239.74609375,-54.19921875,-20.01953125
0,1734037207290.875,-82.51953125,0.9765625,-65.91796875,-24.4140625
1,1734037207294.7812,41.9921875,-302.24609375,-114.74609375,-26.3671875
2,1734037207298.6875,90.8203125,-513.18359375,-117.67578125,-17.08984375
3,1734037207302.5938,-33.203125,-172.36328125,-84.47265625,-14.16015625
4,1734037207306.5,-107.421875,-73.73046875,-78.61328125,-19.04296875
5,1734037207310.4062,-31.25,-561.5234375,-135.25390625,-11.23046875
6,1734037207314.3125,93.26171875,-968.75,-142.578125,-2.44140625
7,1734037207318.2188,-16.11328125,-760.7421875,-75.68359375,-27.83203125
8,1734037207322.125,-130.37109375,-664.55078125,-72.265625,-17.08984375
9,1734037207326.0312,-69.82421875,-811.5234375,-136.71875,9.27734375
10,1734037207329.9375,37.59765625,-1000,-195.80078125,7.32421875
11,1734037207333.8438,28.80859375,-613.76953125,-77.63671875,0
0,1734037207337.75,-120.60546875,-62.98828125,-54.19921875,-11.71875
1,1734037207341.6562,-136.71875,-304.6875,-108.88671875,-20.01953125
2,1734037207345.5625,18.5546875,-261.23046875,-79.1015625,-18.5546875
3,1734037207349.4688,62.5,-5.37109375,-73.2421875,-9.27734375
4,1734037207353.375,-97.16796875,-87.40234375,-102.05078125,-25.390625
5,1734037207357.2812,-120.60546875,-567.3828125,-140.13671875,-29.296875
6,1734037207361.1875,35.15625,-770.01953125,-138.671875,0.9765625
7,1734037207365.0938,94.23828125,-608.3984375,-134.765625,-1.953125
8,1734037207369,-71.2890625,-538.0859375,-108.3984375,-38.57421875
9,1734037207372.9062,-169.43359375,-842.28515625,-125.48828125,-35.64453125
10,1734037207376.8125,-33.203125,-687.5,-70.80078125,-12.20703125
11,1734037207380.7188,98.14453125,-37.59765625,-25.390625,-23.4375
0,1734037207384.625,-26.3671875,-274.4140625,-111.328125,-34.66796875
1,1734037207388.5312,-142.578125,-491.2109375,-132.8125,-32.2265625
2,1734037207392.4375,-73.73046875,-172.36328125,-91.796875,-21.484375
3,1734037207396.3438,83.984375,-40.52734375,-83.984375,5.37109375
4,1734037207400.25,31.73828125,-397.4609375,-138.18359375,1.953125
5,1734037207404.1562,-127.44140625,-844.7265625,-163.0859375,-7.32421875
6,1734037207408.0625,-104.00390625,-732.421875,-123.53515625,-7.8125
7,1734037207411.9688,-2.44140625,-646.97265625,-104.98046875,-46.875
8,1734037207415.875,29.296875,-803.22265625,-145.01953125,-50.78125
9,1734037207419.7812,-113.76953125,-1000,-173.33984375,-33.69140625
10,1734037207423.6875,-141.11328125,-730.46875,-69.3359375,-50.29296875
11,1734037207427.5938,19.04296875,-137.6953125,-56.15234375,-44.43359375
0,1734037207431.5,103.515625,-506.34765625,-133.7890625,-18.06640625
1,1734037207435.4062,-32.2265625,-589.84375,-78.125,-17.08984375
2,1734037207439.3125,-139.6484375,-86.9140625,-34.1796875,-30.76171875
3,1734037207443.2188,-51.26953125,-134.765625,-94.23828125,-37.109375
4,1734037207447.125,96.6796875,-446.2890625,-112.79296875,-14.6484375
5,1734037207451.0312,-2.44140625,-582.51953125,-100.09765625,-27.34375
6,1734037207454.9375,-149.4140625,-652.83203125,-101.07421875,-47.36328125
7,1734037207458.8438,-103.515625,-506.8359375,-112.3046875,-39.0625
8,1734037207462.75,43.45703125,-690.91796875,-151.85546875,-18.06640625
9,1734037207466.6562,44.43359375,-615.72265625,-78.61328125,-19.04296875
10,1734037207470.5625,-115.72265625,-64.94140625,-40.52734375,-43.9453125
11,1734037207474.4688,-111.328125,-258.30078125,-100.5859375,-37.109375
0,1734037207478.375,24.4140625,-722.16796875,-99.12109375,-20.01953125
1,1734037207482.2812,50.29296875,-473.14453125,-67.3828125,-19.04296875
2,1734037207486.1875,-101.07421875,-54.19921875,-66.40625,-43.9453125
3,1734037207490.0938,-188.96484375,-467.28515625,-111.328125,-51.7578125
4,1734037207494,-48.828125,-791.015625,-99.12109375,-27.83203125
5,1734037207497.9062,86.42578125,-566.40625,-49.31640625,-16.6015625
6,1734037207501.8125,-60.05859375,-638.671875,-86.42578125,-40.0390625
7,1734037207505.7188,-172.8515625,-845.21484375,-163.0859375,-46.875
8,1734037207509.625,-81.54296875,-958.0078125,-161.1328125,-40.0390625
9,1734037207513.5312,68.84765625,-474.609375,-59.5703125,-34.66796875
10,1734037207517.4375,0.48828125,1.46484375,-34.1796875,-37.59765625
11,1734037207521.3438,-167.48046875,-544.43359375,-112.3046875,-33.69140625
0,1734037207525.25,-95.703125,-794.921875,-102.05078125,-3.90625
1,1734037207529.1562,61.5234375,-131.34765625,-13.18359375,-20.99609375
2,1734037207533.0625,44.43359375,-187.98828125,-62.01171875,-37.59765625
3,1734037207536.9688,-117.1875,-634.27734375,-64.94140625,-48.828125
4,1734037207540.875,-152.34375,-466.796875,-42.48046875,-62.01171875
5,1734037207544.7812,6.8359375,-392.578125,-84.47265625,-25.390625
6,1734037207548.6875,68.84765625,-633.30078125,-95.21484375,-9.765625
7,1734037207552.5938,-121.58203125,-898.4375,-148.92578125,-31.73828125
8,1734037207556.5,-203.61328125,-774.90234375,-122.0703125,-47.36328125
9,1734037207560.4062,-53.7109375,-95.703125,-28.3203125,-37.109375
10,1734037207564.3125,52.24609375,-170.8984375,-80.56640625,-13.671875
11,1734037207568.2188,-89.84375,-583.49609375,-83.984375,-29.78515625
0,1734037207572.125,-196.2890625,-418.9453125,-42.48046875,-41.9921875
1,1734037207576.0312,-92.28515625,-58.59375,-48.828125,-20.99609375
