index,unixTimestamp,TP9,AF7,AF8,TP10
0,1734037348806.5,0,0,0,0
1,1734037348810.4062,0,-4.8828125,-6.34765625,-0.48828125
2,1734037348814.3125,-2.44140625,-12.6953125,26.85546875,-0.48828125
3,1734037348818.2188,5.37109375,41.50390625,-83.49609375,2.44140625
4,1734037348822.125,-29.78515625,-273.92578125,289.55078125,-10.7421875
5,1734037348826.0312,-66.40625,-533.69140625,403.3203125,10.7421875
6,1734037348829.9375,-49.31640625,-116.2109375,108.3984375,39.55078125
7,1734037348833.8438,-55.6640625,-111.328125,164.55078125,-11.71875
8,1734037348837.75,-66.40625,-764.6484375,-165.52734375,-44.43359375
9,1734037348841.6562,-55.6640625,-514.6484375,29.296875,-10.25390625
10,1734037348845.5625,-44.43359375,182.6171875,312.01171875,19.53125
11,1734037348849.4688,-34.1796875,-14.16015625,107.91015625,8.7890625
0,1734037348853.375,-46.38671875,-596.6796875,-65.4296875,-52.734375
1,1734037348857.2812,-50.29296875,-367.1875,84.9609375,-54.6875
2,1734037348861.1875,-40.52734375,165.52734375,222.16796875,3.90625
3,1734037348865.0938,-30.76171875,2.44140625,74.70703125,-5.37109375
4,1734037348869,-11.71875,-523.92578125,-143.06640625,-54.19921875
5,1734037348872.9062,3.41796875,-697.75390625,-200.68359375,-63.4765625
6,1734037348876.8125,28.3203125,-433.59375,1.46484375,-20.99609375
7,1734037348880.7188,42.96875,-475.09765625,-95.21484375,1.46484375
8,1734037348884.625,18.5546875,-977.5390625,-486.81640625,-51.26953125
9,1734037348888.5312,-11.23046875,-552.24609375,-156.73828125,-114.74609375
10,1734037348892.4375,17.08984375,152.34375,129.8828125,-66.89453125
11,1734037348896.3438,59.5703125,71.2890625,80.56640625,1.953125
0,1734037348900.25,42.96875,-39.55078125,29.296875,-43.45703125
1,1734037348904.1562,12.20703125,12.6953125,-1.953125,-106.93359375
2,1734037348908.0625,20.5078125,25.87890625,27.83203125,-47.8515625
3,1734037348911.9688,47.36328125,31.73828125,73.73046875,12.6953125
4,1734037348915.875,41.9921875,71.77734375,66.40625,-20.01953125
5,1734037348919.7812,19.04296875,-333.0078125,-203.125,-85.44921875
6,1734037348923.6875,27.83203125,-554.6875,-257.8125,-54.19921875
7,1734037348927.5938,62.5,-694.3359375,-323.73046875,34.66796875
8,1734037348931.5,68.359375,-791.9921875,-356.4453125,28.3203125
9,1734037348935.4062,20.5078125,-165.0390625,-59.5703125,-57.12890625
10,1734037348939.3125,11.71875,-295.41015625,-216.796875,-73.2421875
11,1734037348943.2188,28.80859375,-429.19921875,-160.64453125,7.32421875
0,1734037348947.125,21.484375,156.25,96.6796875,29.78515625
1,1734037348951.0312,8.7890625,395.01953125,91.30859375,-38.57421875
2,1734037348954.9375,-1.46484375,-165.0390625,-176.26953125,-67.3828125
3,1734037348958.8438,-8.30078125,-189.453125,-141.11328125,1.953125
4,1734037348962.75,-10.7421875,370.1171875,144.04296875,47.36328125
5,1734037348966.6562,-24.4140625,117.1875,13.671875,12.20703125
6,1734037348970.5625,-32.2265625,-706.0546875,-403.3203125,-30.76171875
7,1734037348974.4688,-42.48046875,-584.47265625,-291.50390625,21.97265625
8,1734037348978.375,-42.96875,284.1796875,138.671875,82.51953125
9,1734037348982.2812,-41.9921875,499.0234375,154.296875,72.265625
10,1734037348986.1875,-61.5234375,-339.84375,-291.9921875,24.90234375
11,1734037348990.0938,-85.44921875,-744.62890625,-461.9140625,28.80859375
0,1734037348994,-77.1484375,-62.98828125,20.99609375,85.9375
1,1734037348997.9062,-69.3359375,176.26953125,66.89453125,95.703125
2,1734037349001.8125,-109.86328125,-358.3984375,-210.9375,54.19921875
3,1734037349005.7188,-134.765625,-520.5078125,-251.953125,27.83203125
4,1734037349009.625,-103.02734375,150.390625,0,83.49609375
5,1734037349013.5312,-85.9375,116.2109375,33.69140625,120.60546875
6,1734037349017.4375,-97.16796875,-523.92578125,-355.46875,84.47265625
7,1734037349021.3438,-105.95703125,-971.19140625,-561.03515625,28.80859375
8,1734037349025.25,-99.12109375,-271.484375,-84.47265625,47.8515625
9,1734037349029.1562,-80.078125,330.078125,75.1953125,94.23828125
10,1734037349033.0625,-82.51953125,-334.9609375,-208.49609375,60.546875
11,1734037349036.9688,-99.609375,-532.2265625,-315.91796875,-12.6953125
0,1734037349040.875,-86.9140625,167.96875,-67.3828125,15.625
1,1734037349044.7812,-58.10546875,265.625,30.76171875,72.75390625
2,1734037349048.6875,-48.828125,-100.5859375,-166.50390625,53.7109375
3,1734037349052.5938,-67.87109375,-292.48046875,-275.390625,-9.765625
4,1734037349056.5,-58.59375,-99.609375,-189.453125,-17.578125
5,1734037349060.4062,-19.04296875,-199.70703125,-249.51171875,52.734375
6,1734037349064.3125,15.13671875,-855.95703125,-490.234375,70.80078125
7,1734037349068.2188,-13.18359375,-526.85546875,-311.5234375,-5.37109375
8,1734037349072.125,-42.48046875,81.54296875,-164.0625,-45.8984375
9,1734037349076.0312,-1.953125,-32.71484375,-138.18359375,22.94921875
10,1734037349079.9375,20.99609375,124.0234375,-6.34765625,73.2421875
11,1734037349083.8438,16.6015625,337.890625,34.66796875,27.83203125
0,1734037349087.75,11.71875,63.4765625,-178.22265625,-27.83203125
1,1734037349091.6562,13.671875,-154.78515625,-235.3515625,24.4140625
2,1734037349095.5625,18.06640625,83.0078125,-28.80859375,63.4765625
3,1734037349099.4688,3.41796875,339.35546875,75.68359375,24.4140625
4,1734037349103.375,-16.11328125,27.34375,-158.203125,-49.8046875
5,1734037349107.2812,-8.7890625,-459.9609375,-349.12109375,-32.71484375
6,1734037349111.1875,26.85546875,-397.4609375,-182.12890625,62.01171875
7,1734037349115.0938,22.94921875,-183.59375,-131.8359375,62.5
8,1734037349119,-17.578125,-395.01953125,-267.08984375,-29.78515625
9,1734037349122.9062,-17.08984375,-843.26171875,-525.390625,-28.80859375
10,1734037349126.8125,16.11328125,-986.81640625,-514.6484375,59.08203125
11,1734037349130.7188,5.37109375,0,37.109375,51.26953125
0,1734037349134.625,-28.80859375,234.86328125,-25.87890625,-17.08984375
1,1734037349138.5312,-41.015625,-303.7109375,-275.87890625,-39.0625
2,1734037349142.4375,-20.5078125,126.953125,-8.30078125,27.34375
3,1734037349146.3438,-6.34765625,587.40234375,185.05859375,75.1953125
4,1734037349150.25,-8.7890625,184.08203125,-62.5,46.38671875
5,1734037349154.1562,-32.2265625,-615.234375,-406.73828125,-1.46484375
6,1734037349158.0625,-16.6015625,-460.9375,-258.7890625,44.921875
7,1734037349161.9688,23.4375,99.609375,20.01953125,110.3515625
8,1734037349165.875,25.390625,-251.46484375,-209.9609375,94.7265625
9,1734037349169.7812,9.27734375,-956.0546875,-585.9375,42.96875
10,1734037349173.6875,17.578125,-259.765625,-106.93359375,54.6875
11,1734037349177.5938,34.1796875,528.3203125,176.7578125,108.3984375
0,1734037349181.5,16.6015625,254.8828125,-9.27734375,110.83984375
1,1734037349185.4062,1.46484375,-24.4140625,-101.07421875,28.3203125
2,1734037349189.3125,35.64453125,104.4921875,-15.13671875,-10.7421875
3,1734037349193.2188,65.4296875,360.3515625,97.16796875,21.97265625
4,1734037349197.125,65.91796875,203.125,17.08984375,5.859375
5,1734037349201.0312,74.21875,-244.62890625,-225.09765625,-62.5
6,1734037349204.9375,74.21875,-515.13671875,-368.65234375,-114.74609375
7,1734037349208.8438,105.95703125,-272.94921875,-168.9453125,-74.21875
8,1734037349212.75,132.8125,-525.390625,-275.390625,-10.7421875
9,1734037349216.6562,122.0703125,-859.375,-488.28125,-40.52734375
10,1734037349220.5625,105.95703125,-383.7890625,-260.25390625,-121.58203125
11,1734037349224.4688,114.74609375,-51.26953125,-83.49609375,-89.84375
0,1734037349228.375,137.20703125,-23.4375,-30.76171875,-30.2734375
1,1734037349232.2812,136.71875,243.1640625,25.87890625,-53.22265625
2,1734037349236.1875,114.2578125,298.33984375,-28.3203125,-128.41796875
3,1734037349240.0938,122.0703125,-68.359375,-161.62109375,-110.3515625
4,1734037349244,138.18359375,-116.69921875,-100.5859375,-24.4140625
5,1734037349247.9062,128.41796875,-8.30078125,-3.41796875,-12.6953125
6,1734037349251.8125,117.1875,-166.015625,-159.1796875,-54.19921875
7,1734037349255.7188,95.703125,-646.484375,-440.4296875,-57.12890625
8,1734037349259.625,99.12109375,-684.08203125,-374.51171875,15.13671875
9,1734037349263.5312,102.5390625,229.4921875,79.1015625,25.87890625
10,1734037349267.4375,69.82421875,461.42578125,52.734375,-25.390625
11,1734037349271.3438,46.38671875,-196.77734375,-225.09765625,-50.29296875
0,1734037349275.25,60.546875,-323.2421875,-168.45703125,0.48828125
1,1734037349279.1562,57.6171875,172.8515625,51.7578125,29.78515625
2,1734037349283.0625,17.578125,396.97265625,29.296875,-1.953125
3,1734037349286.9688,-15.13671875,-345.21484375,-287.59765625,-42.96875
4,1734037349290.875,-25.87890625,-473.6328125,-231.4453125,-18.06640625
5,1734037349294.7812,-7.32421875,19.04296875,-5.37109375,35.15625
6,1734037349298.6875,-5.37109375,-47.36328125,-63.96484375,29.78515625
7,1734037349302.5938,-39.0625,-685.05859375,-521.97265625,-13.671875
8,1734037349306.5,-45.41015625,-719.7265625,-453.61328125,-10.25390625
9,1734037349310.4062,-30.2734375,262.20703125,102.5390625,31.73828125
10,1734037349314.3125,-48.33984375,429.6875,46.875,57.6171875
11,1734037349318.2188,-72.265625,-392.578125,-270.5078125,25.390625
0,1734037349322.125,-74.21875,-443.359375,-264.16015625,-7.32421875
1,1734037349326.0312,-50.78125,315.91796875,35.64453125,61.03515625
2,1734037349329.9375,-30.76171875,270.01953125,7.8125,99.609375
3,1734037349333.8438,-33.203125,-503.41796875,-304.6875,60.05859375
4,1734037349337.75,-57.12890625,-472.16796875,-337.890625,13.18359375
5,1734037349341.6562,-28.3203125,-99.609375,-200.1953125,57.12890625
6,1734037349345.5625,15.13671875,-305.6640625,-232.91015625,122.55859375
7,1734037349349.4688,7.32421875,-782.71484375,-406.25,102.5390625
8,1734037349353.375,-14.16015625,-419.921875,-243.65234375,17.578125
9,1734037349357.2812,0.48828125,206.54296875,-25.390625,27.83203125
10,1734037349361.1875,46.875,176.7578125,18.06640625,103.515625
11,1734037349365.0938,72.75390625,215.33203125,21.97265625,106.4453125
0,1734037349369,66.40625,237.79296875,-9.27734375,50.78125
1,1734037349372.9062,77.63671875,104.98046875,-33.203125,52.24609375
2,1734037349376.8125,98.14453125,90.8203125,14.6484375,108.3984375
3,1734037349380.7188,105.95703125,323.73046875,96.19140625,105.95703125
4,1734037349384.625,81.54296875,267.578125,3.41796875,49.8046875
5,1734037349388.5312,48.828125,-251.953125,-244.140625,17.08984375
6,1734037349392.4375,48.33984375,-717.7734375,-402.34375,78.125
7,1734037349396.3438,51.7578125,-617.67578125,-217.28515625,122.0703125
8,1734037349400.25,13.18359375,-154.296875,-6.8359375,67.87109375
9,1734037349404.1562,-15.13671875,-272.94921875,-209.47265625,17.08984375
10,1734037349408.0625,-8.7890625,-762.6953125,-394.04296875,62.01171875
11,1734037349411.9688,-10.25390625,-460.44921875,-187.01171875,97.65625
0,1734037349415.875,-18.5546875,554.19921875,211.42578125,53.22265625
1,1734037349419.7812,-40.0390625,128.41796875,-110.83984375,-18.5546875
2,1734037349423.6875,-29.78515625,-245.1171875,-203.125,-27.34375
3,1734037349427.5938,-16.6015625,367.67578125,140.625,30.2734375
4,1734037349431.5,-23.4375,642.578125,187.98828125,42.96875
5,1734037349435.4062,-28.3203125,-228.515625,-270.01953125,-7.8125
6,1734037349439.3125,-24.90234375,-828.61328125,-493.65234375,-20.01953125
7,1734037349443.2188,-9.27734375,-27.83203125,-22.4609375,36.62109375
8,1734037349447.125,-1.953125,295.41015625,95.21484375,53.7109375
9,1734037349451.0312,-1.46484375,-353.02734375,-213.8671875,-13.18359375
10,1734037349454.9375,-19.04296875,-686.5234375,-407.2265625,-59.08203125
11,1734037349458.8438,-13.671875,35.64453125,-26.85546875,-0.9765625
0,1734037349462.75,3.90625,571.77734375,168.45703125,36.62109375
1,1734037349466.6562,2.9296875,-132.32421875,-146.97265625,19.04296875
2,1734037349470.5625,-16.6015625,-616.69921875,-365.234375,-36.62109375
3,1734037349474.4688,0,95.703125,-71.77734375,-13.18359375
4,1734037349478.375,39.0625,392.578125,98.14453125,62.5
5,1734037349482.2812,37.59765625,-94.23828125,-128.90625,58.10546875
6,1734037349486.1875,5.37109375,-585.9375,-358.88671875,-16.6015625
7,1734037349490.0938,4.8828125,-530.2734375,-335.9375,-10.7421875
8,1734037349494,23.4375,-101.5625,-49.8046875,68.359375
9,1734037349497.9062,22.4609375,-447.75390625,-273.92578125,85.44921875
10,1734037349501.8125,4.8828125,-989.2578125,-550.78125,15.13671875
11,1734037349505.7188,-10.7421875,-264.6484375,-154.78515625,-37.59765625
0,1734037349509.625,0.48828125,172.8515625,-15.625,35.15625
1,1734037349513.5312,12.6953125,-76.66015625,-42.96875,68.359375
2,1734037349517.4375,6.34765625,18.06640625,-20.5078125,3.90625
3,1734037349521.3438,-13.18359375,102.05078125,-74.70703125,-39.0625
4,1734037349525.25,-7.32421875,-10.25390625,-94.7265625,9.765625
5,1734037349529.1562,13.18359375,-149.90234375,-135.7421875,45.41015625
6,1734037349533.0625,1.46484375,-295.8984375,-189.453125,2.44140625
7,1734037349536.9688,-17.08984375,-163.57421875,-206.54296875,-68.84765625
8,1734037349540.875,9.765625,-325.1953125,-324.21875,-24.4140625
9,1734037349544.7812,31.25,-655.2734375,-367.67578125,46.875
10,1734037349548.6875,28.80859375,121.09375,37.109375,-0.9765625
11,1734037349552.5938,-3.90625,244.62890625,-40.52734375,-83.49609375
0,1734037349556.5,1.46484375,-373.53515625,-298.33984375,-70.3125
1,1734037349560.4062,68.359375,-235.83984375,-104.98046875,11.71875
2,1734037349564.3125,62.5,382.8125,124.0234375,18.06640625
3,1734037349568.2188,11.71875,294.43359375,-28.80859375,-47.36328125
4,1734037349572.125,5.859375,-449.70703125,-300.78125,-57.12890625
5,1734037349576.0312,35.64453125,-541.015625,-202.1484375,21.484375
6,1734037349579.9375,47.8515625,-71.2890625,-1.46484375,55.17578125
7,1734037349583.8438,32.2265625,-104.00390625,-103.515625,15.13671875
8,1734037349587.75,6.8359375,-739.74609375,-511.71875,-33.203125
9,1734037349591.6562,8.7890625,-799.8046875,-449.70703125,4.8828125
10,1734037349595.5625,26.85546875,294.43359375,101.5625,31.73828125
11,1734037349599.4688,17.08984375,473.14453125,58.10546875,20.99609375
0,1734037349603.375,9.765625,-119.140625,-254.39453125,-28.3203125
1,1734037349607.2812,12.20703125,63.4765625,-94.7265625,-19.04296875
2,1734037349611.1875,8.7890625,562.5,167.48046875,39.0625
3,1734037349615.0938,12.20703125,198.2421875,-18.06640625,18.5546875
4,1734037349619,-7.8125,-507.32421875,-324.70703125,-44.43359375
5,1734037349622.9062,0.9765625,-447.75390625,-318.359375,-64.453125
6,1734037349626.8125,26.85546875,-46.38671875,-43.9453125,-19.04296875
7,1734037349630.7188,38.0859375,-131.34765625,-115.72265625,11.23046875
8,1734037349634.625,32.71484375,-625.48828125,-405.2734375,-25.87890625
9,1734037349638.5312,19.04296875,-148.4375,-104.98046875,-79.1015625
10,1734037349642.4375,49.8046875,485.3515625,136.71875,-36.1328125
11,1734037349646.3438,76.66015625,358.88671875,71.2890625,5.859375
0,1734037349650.25,65.4296875,194.82421875,15.13671875,-38.0859375
1,1734037349654.1562,41.9921875,221.19140625,6.34765625,-100.09765625
2,1734037349658.0625,67.3828125,284.66796875,41.50390625,-51.26953125
3,1734037349661.9688,97.16796875,287.109375,70.80078125,-3.90625
4,1734037349665.875,89.35546875,117.67578125,-2.9296875,-35.15625
5,1734037349669.7812,48.33984375,-246.09375,-214.84375,-83.0078125
6,1734037349673.6875,35.15625,-375.9765625,-278.80859375,-85.9375
7,1734037349677.5938,52.734375,-345.21484375,-212.40234375,-21.97265625
8,1734037349681.5,46.38671875,-261.23046875,-73.2421875,-4.8828125
9,1734037349685.4062,32.2265625,-122.0703125,-114.74609375,-62.01171875
10,1734037349689.3125,18.5546875,40.52734375,-116.69921875,-69.3359375
11,1734037349693.2188,34.66796875,-531.73828125,-291.50390625,20.01953125
0,1734037349697.125,42.48046875,-823.73046875,-377.44140625,46.875
1,1734037349701.0312,12.20703125,115.234375,18.5546875,-28.80859375
2,1734037349704.9375,-13.18359375,-30.2734375,-172.8515625,-55.6640625
3,1734037349708.8438,-2.9296875,-123.046875,-170.41015625,15.13671875
4,1734037349712.75,-2.9296875,523.92578125,152.83203125,53.22265625
5,1734037349716.6562,-19.53125,280.2734375,-14.16015625,0.48828125
6,1734037349720.5625,-20.5078125,-574.70703125,-428.22265625,-40.0390625
7,1734037349724.4688,-12.20703125,-771.484375,-467.7734375,0.9765625
8,1734037349728.375,-8.7890625,-76.171875,-2.9296875,35.15625
9,1734037349732.2812,-7.8125,526.85546875,170.8984375,24.90234375
10,1734037349736.1875,-40.52734375,-170.41015625,-259.765625,-29.296875
11,1734037349740.0938,-46.38671875,-577.1484375,-310.546875,-33.69140625
0,1734037349744,-17.578125,405.76171875,150.87890625,21.97265625
1,1734037349747.9062,-10.7421875,664.0625,134.765625,37.109375
2,1734037349751.8125,-33.69140625,41.50390625,-155.2734375,-20.01953125
3,1734037349755.7188,-47.8515625,-161.1328125,-185.05859375,-61.5234375
4,1734037349759.625,-25.390625,299.8046875,33.69140625,1.46484375
5,1734037349763.5312,-5.37109375,292.48046875,79.1015625,36.1328125
6,1734037349767.4375,-1.953125,-430.17578125,-283.203125,-7.32421875
7,1734037349771.3438,-28.3203125,-933.10546875,-526.85546875,-48.33984375
8,1734037349775.25,-24.4140625,-158.69140625,-62.01171875,-18.5546875
9,1734037349779.1562,-3.90625,529.296875,126.46484375,31.25
10,1734037349783.0625,-7.8125,-254.8828125,-211.9140625,21.484375
11,1734037349786.9688,-15.625,-598.6328125,-309.5703125,-40.52734375
0,1734037349790.875,-24.4140625,265.625,35.64453125,-21.97265625
1,1734037349794.7812,-0.48828125,408.203125,80.56640625,50.78125
2,1734037349798.6875,10.7421875,-97.16796875,-83.0078125,48.33984375
3,1734037349802.5938,-31.25,-82.03125,-69.82421875,-18.06640625
4,1734037349806.5,-33.69140625,213.8671875,1.953125,-24.4140625
5,1734037349810.4062,-16.11328125,-42.48046875,-93.26171875,54.6875
6,1734037349814.3125,-14.16015625,-492.1875,-258.7890625,75.68359375
7,1734037349818.2188,-39.55078125,-125,-91.30859375,3.41796875
8,1734037349822.125,-44.43359375,226.07421875,20.01953125,-20.99609375
9,1734037349826.0312,-31.25,15.13671875,-81.54296875,57.12890625
10,1734037349829.9375,-29.296875,106.4453125,-18.5546875,101.07421875
11,1734037349833.8438,-46.38671875,418.9453125,96.19140625,49.31640625
0,1734037349837.75,-78.125,135.25390625,-47.36328125,8.7890625
1,1734037349841.6562,-68.84765625,-241.69921875,-110.3515625,76.171875
2,1734037349845.5625,-61.03515625,51.26953125,21.484375,137.6953125
3,1734037349849.4688,-74.21875,497.55859375,143.5546875,103.02734375
4,1734037349853.375,-110.83984375,104.00390625,-71.77734375,43.9453125
5,1734037349857.2812,-103.515625,-649.4140625,-376.46484375,79.58984375
6,1734037349861.1875,-86.42578125,-524.4140625,-195.80078125,124.0234375
7,1734037349865.0938,-91.30859375,-55.6640625,27.34375,124.0234375
8,1734037349869,-105.95703125,-208.49609375,-145.01953125,76.171875
9,1734037349872.9062,-108.3984375,-786.1328125,-488.28125,88.37890625
10,1734037349876.8125,-100.5859375,-639.16015625,-289.0625,158.69140625
11,1734037349880.7188,-108.88671875,458.984375,220.703125,141.11328125
0,1734037349884.625,-105.95703125,320.3125,-19.04296875,73.2421875
1,1734037349888.5312,-82.51953125,-217.28515625,-218.26171875,21.97265625
2,1734037349892.4375,-48.828125,255.37109375,41.9921875,41.015625
3,1734037349896.3438,-21.484375,492.1875,154.296875,48.33984375
4,1734037349900.25,-18.5546875,-62.5,-114.2578125,-37.109375
5,1734037349904.1562,7.32421875,-679.19921875,-423.33984375,-116.69921875
6,1734037349908.0625,41.50390625,-464.35546875,-205.56640625,-77.1484375
7,1734037349911.9688,66.40625,429.19921875,192.3828125,-28.3203125
8,1734037349915.875,86.9140625,219.23828125,-89.35546875,-38.0859375
9,1734037349919.7812,84.9609375,-721.19140625,-505.859375,-91.30859375
10,1734037349923.6875,100.5859375,-58.59375,-43.45703125,-87.40234375
11,1734037349927.5938,149.4140625,675.29296875,196.2890625,-4.39453125
0,1734037349931.5,179.19921875,271.97265625,-33.203125,-9.27734375
1,1734037349935.4062,145.01953125,-130.37109375,-228.02734375,-104.00390625
2,1734037349939.3125,130.37109375,54.6875,-121.09375,-117.1875
3,1734037349943.2188,154.296875,398.4375,75.68359375,-55.6640625
4,1734037349947.125,137.6953125,216.30859375,-50.29296875,-40.0390625
5,1734037349951.0312,106.93359375,-294.43359375,-305.17578125,-89.84375
6,1734037349954.9375,83.984375,-506.34765625,-387.20703125,-141.6015625
7,1734037349958.8438,71.2890625,-285.15625,-224.609375,-80.078125
8,1734037349962.75,73.73046875,-500.48828125,-351.07421875,-19.53125
9,1734037349966.6562,57.6171875,-1000,-555.17578125,-57.12890625
10,1734037349970.5625,19.04296875,-453.61328125,-288.57421875,-129.39453125
11,1734037349974.4688,17.578125,71.77734375,-117.1875,-80.56640625
0,1734037349978.375,27.83203125,132.32421875,-11.71875,0
1,1734037349982.2812,21.484375,343.26171875,44.921875,-13.18359375
2,1734037349986.1875,-10.25390625,124.51171875,-156.25,-94.7265625
3,1734037349990.0938,-20.5078125,-256.34765625,-373.53515625,-83.984375
4,1734037349994,0,-183.59375,-235.3515625,6.34765625
5,1734037349997.9062,-12.20703125,-87.40234375,-171.875,10.7421875
6,1734037350001.8125,-48.33984375,-411.1328125,-341.30859375,-62.01171875
7,1734037350005.7188,-71.77734375,-806.15234375,-518.5546875,-74.21875
8,1734037350009.625,-74.70703125,-891.11328125,-527.83203125,-1.953125
9,1734037350013.5312,-65.91796875,-123.046875,-57.12890625,22.94921875
10,1734037350017.4375,-66.89453125,244.62890625,-86.42578125,-39.0625
11,1734037350021.3438,-80.078125,-532.2265625,-463.37890625,-86.42578125
0,1734037350025.25,-80.56640625,-525.87890625,-334.47265625,-17.578125
1,1734037350029.1562,-58.59375,237.79296875,-2.44140625,40.52734375
2,1734037350033.0625,-64.94140625,208.49609375,-114.2578125,-1.46484375
3,1734037350036.9688,-102.5390625,-537.109375,-454.1015625,-71.77734375
4,1734037350040.875,-106.4453125,-624.0234375,-380.37109375,-48.33984375
5,1734037350044.7812,-56.640625,-231.4453125,-297.8515625,22.94921875
6,1734037350048.6875,-32.71484375,-366.69921875,-305.17578125,17.08984375
7,1734037350052.5938,-58.59375,-814.453125,-607.91015625,-44.921875
8,1734037350056.5,-65.4296875,-929.19921875,-666.50390625,-38.57421875
9,1734037350060.4062,-48.33984375,-134.27734375,-140.625,18.5546875
10,1734037350064.3125,-34.1796875,99.12109375,-145.99609375,29.296875
11,1734037350068.2188,-41.50390625,-506.34765625,-409.1796875,-31.73828125
0,1734037350072.125,-38.0859375,-494.140625,-376.46484375,-72.75390625
1,1734037350076.0312,-9.765625,62.5,-180.17578125,0.9765625
2,1734037350079.9375,-1.953125,31.73828125,-214.35546875,44.43359375
3,1734037350083.8438,-32.71484375,-436.5234375,-431.640625,-19.04296875
4,1734037350087.75,-55.17578125,-630.859375,-444.3359375,-78.61328125
5,1734037350091.6562,-31.73828125,-585.9375,-350.5859375,-9.765625
6,1734037350095.5625,-5.37109375,-599.12109375,-424.8046875,55.17578125
7,1734037350099.4688,-1.46484375,-865.234375,-562.01171875,38.57421875
8,1734037350103.375,-28.3203125,-594.23828125,-391.6015625,-16.6015625
9,1734037350107.2812,-28.80859375,-175.29296875,-302.24609375,4.39453125
10,1734037350111.1875,-1.953125,-168.45703125,-236.81640625,82.03125
11,1734037350115.0938,9.765625,-160.15625,-209.9609375,66.40625
0,1734037350119,-15.625,-157.71484375,-322.75390625,-18.06640625
1,1734037350122.9062,-10.25390625,-504.8828125,-400.87890625,-29.78515625
2,1734037350126.8125,22.4609375,-731.4453125,-384.27734375,44.921875
3,1734037350130.7188,17.08984375,-314.453125,-155.76171875,55.6640625
4,1734037350134.625,12.20703125,5.37109375,-188.96484375,-19.04296875
5,1734037350138.5312,4.39453125,-537.59765625,-454.58984375,-49.8046875
6,1734037350142.4375,13.18359375,-877.44140625,-495.1171875,28.80859375
7,1734037350146.3438,24.90234375,-768.5546875,-425.29296875,79.1015625
8,1734037350150.25,-2.44140625,-202.1484375,-214.84375,15.625
9,1734037350154.1562,-39.0625,-196.77734375,-352.5390625,-61.03515625
10,1734037350158.0625,-31.73828125,-691.89453125,-413.57421875,-12.6953125
11,1734037350161.9688,-0.48828125,-177.24609375,-60.546875,44.43359375
0,1734037350165.875,-6.8359375,447.265625,82.03125,11.71875
1,1734037350169.7812,-38.57421875,-141.11328125,-274.4140625,-51.7578125
2,1734037350173.6875,-45.8984375,-440.4296875,-381.8359375,-38.57421875
3,1734037350177.5938,-14.16015625,-55.6640625,-132.32421875,31.25
4,1734037350181.5,-5.37109375,-11.71875,-138.18359375,41.50390625
5,1734037350185.4062,-21.97265625,-488.76953125,-449.70703125,-30.2734375
6,1734037350189.3125,-12.6953125,-1000,-720.21484375,-36.62109375
7,1734037350193.2188,-3.41796875,-441.89453125,-259.765625,28.3203125
8,1734037350197.125,8.30078125,406.25,98.6328125,39.0625
9,1734037350201.0312,0,-175.78125,-225.5859375,-3.41796875
10,1734037350204.9375,0,-721.6796875,-443.84765625,-35.15625
11,1734037350208.8438,27.34375,-71.77734375,-205.56640625,14.16015625
0,1734037350212.75,41.50390625,264.6484375,-24.90234375,53.22265625
1,1734037350216.6562,34.66796875,-212.890625,-214.35546875,3.90625
2,1734037350220.5625,21.484375,-613.28125,-430.6640625,-64.94140625
3,1734037350224.4688,14.16015625,-253.41796875,-292.96875,-43.45703125
4,1734037350228.375,21.484375,20.01953125,-239.2578125,1.46484375
5,1734037350232.2812,25.390625,-513.671875,-428.22265625,-16.11328125
6,1734037350236.1875,4.8828125,-978.02734375,-519.04296875,-88.37890625
7,1734037350240.0938,17.08984375,-890.625,-464.35546875,-88.37890625
8,1734037350244,30.76171875,-626.953125,-336.42578125,-34.1796875
9,1734037350247.9062,34.66796875,-778.80859375,-517.578125,-15.13671875
10,1734037350251.8125,7.8125,-905.2734375,-600.09765625,-86.42578125
11,1734037350255.7188,-12.6953125,-492.1875,-374.51171875,-123.046875
0,1734037350259.625,21.97265625,-274.4140625,-330.56640625,-42.96875
1,1734037350263.5312,29.78515625,-730.46875,-539.55078125,-7.8125
2,1734037350267.4375,22.4609375,-836.42578125,-563.4765625,-52.734375
3,1734037350271.3438,20.5078125,-467.7734375,-401.85546875,-96.6796875
4,1734037350275.25,40.0390625,-493.65234375,-430.17578125,-56.15234375
5,1734037350279.1562,55.6640625,-628.41796875,-465.8203125,-17.08984375
6,1734037350283.0625,43.9453125,-727.05078125,-448.2421875,-34.66796875
7,1734037350286.9688,23.92578125,-665.52734375,-404.78515625,-94.7265625
8,1734037350290.875,30.76171875,-712.890625,-522.4609375,-75.68359375
9,1734037350294.7812,55.17578125,-963.8671875,-618.65234375,1.953125
10,1734037350298.6875,52.734375,-541.9921875,-319.3359375,-1.953125
11,1734037350302.5938,35.15625,-341.796875,-376.46484375,-41.015625
0,1734037350306.5,17.08984375,-707.03125,-449.70703125,-38.0859375
1,1734037350310.4062,41.015625,-440.4296875,-291.015625,-6.34765625
2,1734037350314.3125,55.17578125,8.7890625,-258.30078125,7.32421875
3,1734037350318.2188,9.765625,-260.7421875,-397.94921875,-40.52734375
4,1734037350322.125,-0.9765625,-791.9921875,-527.83203125,-71.2890625
5,1734037350326.0312,16.11328125,-857.421875,-450.68359375,-19.53125
6,1734037350329.9375,19.53125,-597.65625,-394.04296875,-1.46484375
7,1734037350333.8438,-0.9765625,-747.0703125,-444.82421875,-53.22265625
8,1734037350337.75,-30.2734375,-1000,-703.61328125,-77.1484375
9,1734037350341.6562,-19.53125,-970.21484375,-679.19921875,-46.38671875
10,1734037350345.5625,-0.9765625,-389.6484375,-294.43359375,-26.85546875
11,1734037350349.4688,-5.37109375,-395.99609375,-421.38671875,-59.5703125
0,1734037350353.375,-32.2265625,-912.109375,-570.80078125,-126.953125
1,1734037350357.2812,-36.1328125,-602.5390625,-404.78515625,-102.05078125
2,1734037350361.1875,-28.3203125,-92.7734375,-260.25390625,-45.41015625
3,1734037350365.0938,-20.01953125,-320.3125,-411.62109375,-55.6640625
4,1734037350369,-39.55078125,-890.625,-646.97265625,-104.00390625
5,1734037350372.9062,-41.9921875,-997.0703125,-575.68359375,-110.3515625
6,1734037350376.8125,-10.25390625,-757.8125,-382.32421875,-59.5703125
7,1734037350380.7188,-7.8125,-711.9140625,-496.58203125,-39.55078125
8,1734037350384.625,-25.87890625,-963.37890625,-696.77734375,-74.21875
9,1734037350388.5312,-42.48046875,-752.9296875,-458.49609375,-111.81640625
10,1734037350392.4375,-26.85546875,-257.32421875,-326.171875,-61.5234375
11,1734037350396.3438,5.37109375,-325.1953125,-320.80078125,-13.671875
0,1734037350400.25,5.37109375,-476.5625,-364.2578125,-36.62109375
1,1734037350404.1562,-13.18359375,-716.30859375,-519.04296875,-80.56640625
2,1734037350408.0625,1.46484375,-750,-464.84375,-36.1328125
3,1734037350411.9688,22.94921875,-587.890625,-354.4921875,20.99609375
4,1734037350415.875,8.30078125,-610.83984375,-391.11328125,-7.8125
5,1734037350419.7812,-15.625,-784.1796875,-553.22265625,-58.10546875
6,1734037350423.6875,-6.34765625,-966.796875,-482.91015625,-51.26953125
7,1734037350427.5938,5.859375,-920.41015625,-552.734375,16.6015625
8,1734037350431.5,-7.32421875,-902.83203125,-611.328125,37.59765625
9,1734037350435.4062,-31.73828125,-549.8046875,-383.7890625,-49.31640625
10,1734037350439.3125,-28.3203125,-590.33203125,-445.80078125,-74.21875
11,1734037350443.2188,-8.30078125,-559.08203125,-365.234375,-3.90625
0,1734037350447.125,-7.32421875,-123.53515625,-249.51171875,17.578125
1,1734037350451.0312,-35.64453125,-155.76171875,-346.19140625,-32.2265625
2,1734037350454.9375,-68.84765625,-680.6640625,-502.9296875,-72.75390625
3,1734037350458.8438,-48.828125,-833.984375,-476.5625,-22.94921875
4,1734037350462.75,-30.76171875,-449.70703125,-333.984375,17.578125
5,1734037350466.6562,-42.96875,-545.41015625,-365.72265625,-10.25390625
6,1734037350470.5625,-52.24609375,-947.75390625,-615.234375,-67.3828125
7,1734037350474.4688,-44.921875,-1000,-711.42578125,-24.4140625
8,1734037350478.375,-24.4140625,-500.48828125,-320.80078125,41.50390625
9,1734037350482.2812,-33.69140625,45.8984375,-212.40234375,27.83203125
10,1734037350486.1875,-48.33984375,-512.20703125,-434.08203125,-20.99609375
11,1734037350490.0938,-29.296875,-680.6640625,-393.06640625,-4.8828125
0,1734037350494,-7.8125,-100.09765625,-233.3984375,58.59375
1,1734037350497.9062,-19.53125,74.21875,-243.1640625,65.91796875
2,1734037350501.8125,-39.55078125,-494.62890625,-424.8046875,-3.90625
3,1734037350505.7188,-40.52734375,-691.89453125,-407.2265625,-52.24609375
4,1734037350509.625,-14.6484375,-298.33984375,-300.78125,23.92578125
5,1734037350513.5312,-4.39453125,-425.78125,-345.703125,65.4296875
6,1734037350517.4375,-22.94921875,-763.18359375,-489.2578125,0.9765625
7,1734037350521.3438,-25.87890625,-947.75390625,-493.65234375,-60.546875
8,1734037350525.25,-18.06640625,-664.0625,-329.58984375,-14.16015625
9,1734037350529.1562,1.953125,-222.65625,-208.0078125,50.78125
10,1734037350533.0625,20.01953125,-584.9609375,-478.515625,42.96875
11,1734037350536.9688,-10.7421875,-947.265625,-638.671875,-27.83203125
0,1734037350540.875,-12.6953125,-141.11328125,-178.7109375,-22.4609375
1,1734037350544.7812,22.94921875,276.85546875,-29.296875,53.22265625
2,1734037350548.6875,30.2734375,78.125,-118.1640625,38.57421875
3,1734037350552.5938,4.8828125,-22.4609375,-222.65625,-48.33984375
4,1734037350556.5,-17.08984375,-0.9765625,-247.55859375,-50.78125
5,1734037350560.4062,4.8828125,-166.015625,-297.36328125,31.73828125
6,1734037350564.3125,18.06640625,-677.24609375,-395.99609375,64.94140625
7,1734037350568.2188,-10.25390625,-309.08203125,-249.0234375,-4.39453125
8,1734037350572.125,-1.953125,-27.34375,-263.18359375,-21.97265625
9,1734037350576.0312,24.4140625,-496.09375,-404.296875,72.265625
10,1734037350579.9375,36.1328125,-303.7109375,-249.51171875,106.4453125
11,1734037350583.8438,24.4140625,284.66796875,33.203125,30.2734375
0,1734037350587.75,21.484375,46.38671875,-219.7265625,-69.82421875
1,1734037350591.6562,53.22265625,-193.359375,-277.34375,-32.2265625
2,1734037350595.5625,89.35546875,141.6015625,-16.6015625,26.3671875
3,1734037350599.4688,104.00390625,402.34375,48.828125,-20.01953125
4,1734037350603.375,104.98046875,-22.94921875,-270.01953125,-85.44921875
5,1734037350607.2812,122.55859375,-604.4921875,-404.296875,-54.19921875
6,1734037350611.1875,123.53515625,-469.23828125,-246.58203125,18.06640625
7,1734037350615.0938,113.76953125,-197.265625,-251.46484375,13.671875
8,1734037350619,104.98046875,-566.89453125,-401.85546875,-59.5703125
9,1734037350622.9062,95.21484375,-745.1171875,-434.5703125,-75.68359375
10,1734037350626.8125,98.6328125,-136.71875,-136.23046875,4.8828125
11,1734037350630.7188,88.37890625,57.12890625,-120.1171875,39.55078125
0,1734037350634.625,52.24609375,-307.6171875,-363.28125,-36.62109375
1,1734037350638.5312,23.92578125,-871.09375,-666.9921875,-62.5
2,1734037350642.4375,15.13671875,-711.9140625,-471.6796875,7.32421875
3,1734037350646.3438,11.23046875,271.484375,88.8671875,41.50390625
4,1734037350650.25,-18.5546875,61.03515625,-199.70703125,18.5546875
5,1734037350654.1562,-66.40625,-795.8984375,-584.47265625,-30.2734375
6,1734037350658.0625,-69.3359375,-685.546875,-379.8828125,23.92578125
7,1734037350661.9688,-62.98828125,187.5,22.4609375,91.796875
8,1734037350665.875,-85.44921875,41.9921875,-184.5703125,80.56640625
9,1734037350669.7812,-96.6796875,-941.40625,-658.203125,39.55078125
10,1734037350673.6875,-94.7265625,-373.046875,-240.72265625,59.08203125
11,1734037350677.5938,-83.984375,460.9375,71.2890625,135.7421875
0,1734037350681.5,-77.63671875,249.51171875,-51.26953125,147.94921875
1,1734037350685.4062,-83.984375,-305.6640625,-327.1484375,74.70703125
2,1734037350689.3125,-87.890625,-320.3125,-277.34375,57.12890625
3,1734037350693.2188,-66.40625,366.69921875,66.89453125,130.37109375
4,1734037350697.125,-32.71484375,104.98046875,-36.1328125,174.31640625
5,1734037350701.0312,-43.9453125,-510.7421875,-325.68359375,110.3515625
6,1734037350704.9375,-50.29296875,-417.96875,-379.39453125,57.6171875
7,1734037350708.8438,-13.18359375,-9.27734375,-98.14453125,122.0703125
8,1734037350712.75,2.9296875,-305.6640625,-187.01171875,166.50390625
9,1734037350716.6562,2.44140625,-1000,-494.62890625,127.9296875
10,1734037350720.5625,-0.9765625,-437.01171875,-250,30.76171875
11,1734037350724.4688,1.953125,250.9765625,-10.7421875,50.78125
0,1734037350728.375,40.0390625,539.55078125,129.39453125,139.6484375
1,1734037350732.2812,54.6875,792.48046875,160.15625,106.4453125
2,1734037350736.1875,34.66796875,620.1171875,50.78125,1.953125
3,1734037350740.0938,41.50390625,252.9296875,-34.1796875,22.94921875
4,1734037350744,68.84765625,159.1796875,7.32421875,103.02734375
5,1734037350747.9062,74.21875,253.41796875,70.80078125,97.16796875
6,1734037350751.8125,60.546875,98.6328125,-63.96484375,17.578125
7,1734037350755.7188,66.40625,-235.83984375,-346.19140625,-12.6953125
8,1734037350759.625,94.7265625,-765.625,-427.734375,72.265625
9,1734037350763.5312,107.421875,-5.859375,48.33984375,94.7265625
10,1734037350767.4375,70.80078125,794.921875,167.96875,13.671875
11,1734037350771.3438,48.33984375,102.5390625,-138.671875,-34.1796875
0,1734037350775.25,53.7109375,172.8515625,12.6953125,38.57421875
1,1734037350779.1562,41.9921875,823.2421875,228.515625,78.61328125
2,1734037350783.0625,23.92578125,774.90234375,122.55859375,27.83203125
3,1734037350786.9688,-19.04296875,66.89453125,-147.94921875,-31.73828125
4,1734037350790.875,-37.109375,-36.62109375,-103.515625,9.765625
5,1734037350794.7812,-12.6953125,199.70703125,58.10546875,89.84375
6,1734037350798.6875,-17.578125,65.91796875,22.94921875,53.22265625
7,1734037350802.5938,-57.6171875,-520.01953125,-407.71484375,-20.99609375
8,1734037350806.5,-79.58984375,-1000,-630.37109375,-25.87890625
9,1734037350810.4062,-52.24609375,-153.80859375,-82.03125,11.23046875
10,1734037350814.3125,-44.921875,463.37890625,66.40625,19.53125
11,1734037350818.2188,-66.89453125,-290.52734375,-275.390625,-20.99609375
0,1734037350822.125,-62.01171875,-414.0625,-322.265625,-55.17578125
1,1734037350826.0312,-39.0625,291.015625,-20.01953125,-9.27734375
2,1734037350829.9375,-34.66796875,268.06640625,10.7421875,19.53125
3,1734037350833.8438,-53.7109375,-164.55078125,-270.01953125,-12.20703125
4,1734037350837.75,-60.05859375,-240.72265625,-345.703125,-61.03515625
5,1734037350841.6562,-36.62109375,-267.08984375,-264.6484375,-21.484375
6,1734037350845.5625,-19.04296875,-434.08203125,-361.328125,31.25
7,1734037350849.4688,-31.25,-791.9921875,-501.46484375,10.7421875
8,1734037350853.375,-56.15234375,-630.37109375,-378.41796875,-51.26953125
9,1734037350857.2812,-44.921875,-289.0625,-286.62109375,-37.59765625
10,1734037350861.1875,-36.62109375,-504.39453125,-373.046875,29.78515625
11,1734037350865.0938,-45.41015625,-581.54296875,-331.0546875,42.48046875
0,1734037350869,-62.01171875,-97.65625,-144.53125,-2.44140625
1,1734037350872.9062,-60.05859375,31.25,-210.9375,-5.859375
2,1734037350876.8125,-39.55078125,-81.54296875,-148.4375,54.6875
3,1734037350880.7188,-23.4375,140.13671875,-2.9296875,74.70703125
4,1734037350884.625,-17.08984375,295.8984375,-11.71875,33.69140625
5,1734037350888.5312,-20.01953125,-145.01953125,-231.4453125,22.4609375
6,1734037350892.4375,9.765625,-658.69140625,-407.2265625,96.6796875
7,1734037350896.3438,17.08984375,-685.05859375,-295.8984375,135.25390625
8,1734037350900.25,-8.7890625,32.71484375,48.33984375,89.35546875
9,1734037350904.1562,-13.671875,206.0546875,-13.671875,47.36328125
10,1734037350908.0625,12.20703125,-306.640625,-162.109375,90.8203125
11,1734037350911.9688,36.1328125,-203.125,-21.97265625,155.76171875
0,1734037350915.875,20.5078125,524.4140625,176.7578125,126.46484375
1,1734037350919.7812,-5.859375,316.40625,-12.6953125,58.10546875
2,1734037350923.6875,2.9296875,-227.05078125,-104.00390625,62.5
3,1734037350927.5938,25.87890625,394.04296875,168.45703125,106.93359375
4,1734037350931.5,23.92578125,744.140625,206.0546875,103.02734375
5,1734037350935.4062,0.9765625,-78.125,-138.671875,52.734375
6,1734037350939.3125,-0.48828125,-489.2578125,-212.40234375,51.7578125
7,1734037350943.2188,12.6953125,320.80078125,159.66796875,97.65625
8,1734037350947.125,16.11328125,990.72265625,299.31640625,106.93359375
9,1734037350951.0312,-5.37109375,289.55078125,-90.8203125,72.75390625
10,1734037350954.9375,-29.78515625,-602.05078125,-386.71875,48.828125
11,1734037350958.8438,-2.9296875,270.99609375,137.6953125,75.1953125
0,1734037350962.75,19.04296875,971.6796875,298.33984375,106.93359375
1,1734037350966.6562,-6.34765625,394.53125,60.546875,93.26171875
2,1734037350970.5625,-41.50390625,-130.859375,-35.15625,56.15234375
3,1734037350974.4688,-41.50390625,394.53125,187.01171875,82.03125
4,1734037350978.375,-19.04296875,813.96484375,252.9296875,129.39453125
5,1734037350982.2812,-13.671875,45.41015625,-13.671875,126.953125
6,1734037350986.1875,-23.92578125,-499.51171875,-135.25390625,67.87109375
7,1734037350990.0938,-8.7890625,-135.7421875,20.99609375,67.87109375
8,1734037350994,14.16015625,379.39453125,220.21484375,129.39453125
9,1734037350997.9062,19.04296875,-82.51953125,-52.734375,158.203125
10,1734037351001.8125,-9.765625,-975.5859375,-397.94921875,120.60546875
11,1734037351005.7188,-26.3671875,-16.6015625,70.80078125,70.80078125
0,1734037351009.625,14.6484375,755.859375,265.13671875,122.0703125
1,1734037351013.5312,20.99609375,717.28515625,234.86328125,160.64453125
2,1734037351017.4375,-3.41796875,759.27734375,232.91015625,137.6953125
3,1734037351021.3438,-16.6015625,691.40625,199.21875,102.5390625
4,1734037351025.25,9.27734375,466.30859375,166.50390625,134.27734375
5,1734037351029.1562,24.4140625,140.13671875,131.8359375,180.6640625
6,1734037351033.0625,-14.6484375,243.65234375,185.546875,154.296875
7,1734037351036.9688,-51.7578125,491.69921875,225.09765625,101.5625
8,1734037351040.875,-34.1796875,419.43359375,131.34765625,124.51171875
9,1734037351044.7812,-2.9296875,-158.69140625,95.703125,163.0859375
10,1734037351048.6875,-20.5078125,515.625,343.75,149.90234375
11,1734037351052.5938,-41.50390625,999.51171875,300.78125,121.58203125
0,1734037351056.5,-34.1796875,582.03125,217.28515625,119.140625
1,1734037351060.4062,-5.37109375,730.46875,329.1015625,159.1796875
2,1734037351064.3125,3.90625,999.51171875,404.78515625,166.9921875
3,1734037351068.2188,-25.87890625,906.25,300.29296875,133.30078125
4,1734037351072.125,-39.55078125,500,247.0703125,120.60546875
5,1734037351076.0312,-3.41796875,447.265625,303.7109375,160.15625
6,1734037351079.9375,16.11328125,669.921875,307.12890625,187.98828125
7,1734037351083.8438,0.9765625,693.359375,287.59765625,162.109375
8,1734037351087.75,-7.8125,-150.87890625,-27.34375,148.92578125
9,1734037351091.6562,22.94921875,-958.984375,-212.890625,179.19921875
10,1734037351095.5625,41.50390625,312.01171875,288.0859375,183.59375
11,1734037351099.4688,36.1328125,999.51171875,367.67578125,160.15625
0,1734037351103.375,9.765625,657.71484375,204.1015625,120.60546875
1,1734037351107.2812,18.5546875,877.9296875,355.46875,126.46484375
2,1734037351111.1875,55.17578125,999.0234375,427.24609375,159.1796875
3,1734037351115.0938,45.8984375,888.671875,343.75,146.97265625
4,1734037351119,28.3203125,716.30859375,250.9765625,86.9140625
5,1734037351122.9062,21.484375,602.5390625,238.28125,56.15234375
6,1734037351126.8125,34.66796875,823.2421875,319.3359375,65.4296875
7,1734037351130.7188,47.36328125,812.98828125,233.88671875,73.73046875
8,1734037351134.625,22.4609375,159.66796875,143.5546875,57.6171875
9,1734037351138.5312,7.32421875,318.84765625,247.0703125,28.80859375
10,1734037351142.4375,35.64453125,945.80078125,344.23828125,45.8984375
11,1734037351146.3438,47.36328125,679.19921875,167.48046875,60.546875
0,1734037351150.25,27.83203125,498.53515625,107.421875,45.8984375
1,1734037351154.1562,4.39453125,935.546875,316.40625,20.99609375
2,1734037351158.0625,24.4140625,945.80078125,324.70703125,29.296875
3,1734037351161.9688,53.22265625,843.75,373.53515625,59.08203125
4,1734037351165.875,26.85546875,890.13671875,323.2421875,58.59375
5,1734037351169.7812,-20.99609375,499.51171875,167.96875,24.90234375
6,1734037351173.6875,-18.06640625,370.1171875,218.26171875,33.203125
7,1734037351177.5938,25.87890625,35.15625,72.75390625,82.51953125
8,1734037351181.5,35.64453125,-474.12109375,24.90234375,97.16796875
9,1734037351185.4062,-16.6015625,436.5234375,292.96875,43.45703125
10,1734037351189.3125,-49.8046875,759.27734375,196.2890625,20.99609375
11,1734037351193.2188,-23.92578125,484.86328125,196.2890625,65.4296875
0,1734037351197.125,-15.13671875,710.9375,317.87109375,78.61328125
1,1734037351201.0312,-53.22265625,968.26171875,283.69140625,59.5703125
2,1734037351204.9375,-68.84765625,580.56640625,142.08984375,50.29296875
3,1734037351208.8438,-35.15625,227.05078125,180.6640625,72.265625
4,1734037351212.75,-16.6015625,703.125,295.8984375,79.1015625
5,1734037351216.6562,-51.7578125,741.2109375,249.0234375,63.96484375
6,1734037351220.5625,-69.82421875,-20.5078125,19.53125,55.6640625
7,1734037351224.4688,-52.24609375,80.078125,76.66015625,62.98828125
8,1734037351228.375,-43.45703125,851.07421875,335.9375,73.73046875
9,1734037351232.2812,-47.8515625,999.51171875,373.046875,75.1953125
10,1734037351236.1875,-69.3359375,383.30078125,-12.6953125,83.0078125
11,1734037351240.0938,-69.3359375,-572.75390625,-247.55859375,86.42578125
0,1734037351244,-41.50390625,409.66796875,254.8828125,74.21875
1,1734037351247.9062,-20.99609375,999.51171875,333.984375,71.77734375
2,1734037351251.8125,-53.7109375,389.16015625,139.6484375,62.5
3,1734037351255.7188,-76.171875,335.9375,173.33984375,70.3125
4,1734037351259.625,-40.0390625,952.63671875,323.73046875,117.67578125
5,1734037351263.5312,-19.53125,825.1953125,270.01953125,161.1328125
6,1734037351267.4375,-25.87890625,217.7734375,92.28515625,163.0859375
7,1734037351271.3438,-27.83203125,-29.78515625,51.7578125,128.41796875
8,1734037351275.25,8.7890625,536.1328125,247.0703125,95.21484375
9,1734037351279.1562,48.33984375,954.1015625,311.03515625,88.37890625
10,1734037351283.0625,35.64453125,620.1171875,223.6328125,51.26953125
11,1734037351286.9688,-9.27734375,505.859375,198.2421875,-13.18359375
0,1734037351290.875,18.06640625,797.36328125,253.90625,-41.015625
1,1734037351294.7812,71.2890625,999.51171875,364.2578125,-47.8515625
2,1734037351298.6875,65.91796875,-22.4609375,-67.3828125,-28.3203125
3,1734037351302.5938,41.015625,-585.44921875,-178.22265625,-48.33984375
4,1734037351306.5,54.19921875,492.67578125,272.4609375,-83.0078125
5,1734037351310.4062,101.5625,634.27734375,208.0078125,-51.26953125
6,1734037351314.3125,114.2578125,-179.6875,-32.2265625,-38.57421875
7,1734037351318.2188,72.75390625,11.23046875,81.54296875,-70.80078125
8,1734037351322.125,61.03515625,895.5078125,306.640625,-86.9140625
9,1734037351326.0312,113.28125,699.70703125,135.25390625,-54.6875
10,1734037351329.9375,114.2578125,652.83203125,165.52734375,-42.48046875
11,1734037351333.8438,70.3125,941.89453125,287.109375,-61.5234375
0,1734037351337.75,67.3828125,796.875,185.546875,-45.41015625
1,1734037351341.6562,88.8671875,496.58203125,183.59375,-12.20703125
2,1734037351345.5625,93.75,643.06640625,233.88671875,16.6015625
3,1734037351349.4688,66.40625,907.71484375,237.3046875,28.3203125
4,1734037351353.375,32.71484375,424.31640625,83.0078125,13.18359375
5,1734037351357.2812,33.69140625,-355.46875,-101.5625,34.66796875
6,1734037351361.1875,49.31640625,-197.75390625,42.48046875,71.2890625
7,1734037351365.0938,44.921875,322.265625,177.734375,88.8671875
8,1734037351369,-3.41796875,-88.37890625,-53.7109375,86.42578125
9,1734037351372.9062,-13.18359375,-422.36328125,-207.03125,69.82421875
10,1734037351376.8125,3.90625,134.765625,24.90234375,80.56640625
11,1734037351380.7188,-14.6484375,626.46484375,200.1953125,94.7265625
0,1734037351384.625,-39.55078125,231.4453125,-26.3671875,82.03125
1,1734037351388.5312,-61.03515625,-425.78125,-275.87890625,58.59375
2,1734037351392.4375,-53.7109375,-104.4921875,-65.91796875,67.87109375
3,1734037351396.3438,-32.71484375,420.8984375,146.97265625,92.28515625
4,1734037351400.25,-55.17578125,39.0625,-104.4921875,70.80078125
5,1734037351404.1562,-97.16796875,-893.5546875,-658.203125,44.43359375
6,1734037351408.0625,-86.42578125,-901.85546875,-550.29296875,31.73828125
7,1734037351411.9688,-49.31640625,32.71484375,42.96875,21.97265625
8,1734037351415.875,-57.12890625,-53.22265625,-144.04296875,24.90234375
9,1734037351419.7812,-96.19140625,-876.46484375,-517.578125,19.53125
10,1734037351423.6875,-80.56640625,-538.57421875,-323.2421875,8.30078125
11,1734037351427.5938,-61.5234375,147.94921875,-68.359375,12.6953125
0,1734037351431.5,-68.84765625,-318.84765625,-260.25390625,35.64453125
1,1734037351435.4062,-88.8671875,-860.83984375,-527.83203125,10.25390625
2,1734037351439.3125,-80.078125,-450.1953125,-332.51953125,-15.625
3,1734037351443.2188,-21.97265625,-102.5390625,-249.51171875,10.25390625
4,1734037351447.125,-21.97265625,-254.39453125,-304.19921875,28.80859375
5,1734037351451.0312,-46.38671875,-738.76953125,-438.4765625,18.06640625
6,1734037351454.9375,-51.7578125,-975.09765625,-504.8828125,-8.30078125
7,1734037351458.8438,-32.2265625,-770.01953125,-370.1171875,3.90625
8,1734037351462.75,-1.46484375,-803.7109375,-507.32421875,32.71484375
9,1734037351466.6562,-10.25390625,-970.21484375,-612.3046875,24.4140625
10,1734037351470.5625,-37.109375,-585.9375,-361.328125,-5.859375
11,1734037351474.4688,-20.01953125,-473.6328125,-368.65234375,-5.859375
0,1734037351478.375,-0.48828125,-557.12890625,-354.98046875,25.390625
1,1734037351482.2812,-31.25,-286.62109375,-294.921875,31.25
2,1734037351486.1875,-69.82421875,-300.78125,-366.2109375,-0.9765625
3,1734037351490.0938,-56.15234375,-660.64453125,-470.703125,-5.859375
4,1734037351494,-16.11328125,-690.91796875,-468.75,3.41796875
5,1734037351497.9062,-12.20703125,-566.89453125,-425.78125,-7.32421875
6,1734037351501.8125,-57.6171875,-842.7734375,-474.12109375,-41.50390625
7,1734037351505.7188,-73.2421875,-1000,-611.81640625,-70.80078125
8,1734037351509.625,-42.96875,-809.08203125,-587.890625,-75.68359375
9,1734037351513.5312,-31.73828125,-332.51953125,-324.21875,-98.14453125
10,1734037351517.4375,-47.36328125,-311.5234375,-350.09765625,-117.67578125
11,1734037351521.3438,-54.19921875,-825.68359375,-621.58203125,-125.9765625
0,1734037351525.25,-13.671875,-851.07421875,-624.0234375,-122.0703125
1,1734037351529.1562,5.859375,-309.5703125,-310.546875,-114.74609375
2,1734037351533.0625,19.53125,-592.28515625,-444.3359375,-104.4921875
3,1734037351536.9688,9.27734375,-1000,-626.953125,-104.98046875
4,1734037351540.875,23.4375,-819.3359375,-519.04296875,-113.76953125
5,1734037351544.7812,84.47265625,-722.16796875,-479.00390625,-87.890625
6,1734037351548.6875,84.9609375,-886.23046875,-479.98046875,-75.1953125
7,1734037351552.5938,45.8984375,-999.0234375,-713.8671875,-89.35546875
8,1734037351556.5,45.8984375,-996.09375,-771.484375,-96.6796875
9,1734037351560.4062,69.3359375,-574.70703125,-380.859375,-104.4921875
10,1734037351564.3125,80.56640625,-479.00390625,-427.734375,-97.65625
11,1734037351568.2188,55.6640625,-893.06640625,-570.3125,-100.5859375
0,1734037351572.125,32.71484375,-866.69921875,-520.5078125,-118.1640625
1,1734037351576.0312,51.7578125,-523.4375,-416.50390625,-123.53515625
2,1734037351579.9375,55.6640625,-523.4375,-457.51953125,-104.4921875
3,1734037351583.8438,14.6484375,-881.8359375,-592.7734375,-125.48828125
4,1734037351587.75,-4.8828125,-968.26171875,-597.65625,-161.1328125
5,1734037351591.6562,1.46484375,-952.1484375,-517.578125,-153.3203125
6,1734037351595.5625,10.25390625,-975.09765625,-605.95703125,-137.20703125
7,1734037351599.4688,10.7421875,-966.30859375,-713.8671875,-134.765625
8,1734037351603.375,-33.203125,-966.796875,-594.23828125,-164.0625
9,1734037351607.2812,-32.71484375,-842.28515625,-492.1875,-162.109375
10,1734037351611.1875,-4.8828125,-803.7109375,-573.2421875,-131.34765625
11,1734037351615.0938,-5.859375,-956.0546875,-695.3125,-130.859375
0,1734037351619,-42.96875,-913.57421875,-547.36328125,-144.04296875
1,1734037351622.9062,-41.015625,-904.78515625,-548.828125,-145.01953125
2,1734037351626.8125,4.39453125,-895.99609375,-530.2734375,-123.53515625
3,1734037351630.7188,23.92578125,-688.96484375,-446.2890625,-91.796875
4,1734037351634.625,-0.9765625,-709.47265625,-519.04296875,-83.984375
5,1734037351638.5312,-15.13671875,-1000,-671.38671875,-84.47265625
6,1734037351642.4375,17.578125,-982.421875,-644.04296875,-77.1484375
7,1734037351646.3438,29.296875,-908.203125,-516.6015625,-75.1953125
8,1734037351650.25,13.671875,-963.8671875,-572.265625,-67.3828125
9,1734037351654.1562,-18.06640625,-990.72265625,-612.79296875,-69.3359375
10,1734037351658.0625,2.44140625,-1000,-705.56640625,-51.7578125
11,1734037351661.9688,33.203125,-973.6328125,-711.9140625,-24.90234375
0,1734037351665.875,20.99609375,-566.89453125,-401.85546875,-37.109375
1,1734037351669.7812,13.18359375,-703.61328125,-533.203125,-45.8984375
2,1734037351673.6875,5.859375,-868.65234375,-567.3828125,-50.78125
3,1734037351677.5938,5.859375,-341.796875,-360.83984375,-32.71484375
4,1734037351681.5,0.48828125,-274.4140625,-374.0234375,-17.08984375
5,1734037351685.4062,-30.76171875,-791.015625,-652.34375,-35.64453125
6,1734037351689.3125,-32.2265625,-1000,-719.7265625,-40.52734375
7,1734037351693.2188,7.32421875,-527.34375,-377.9296875,-43.9453125
8,1734037351697.125,24.90234375,-83.0078125,-285.64453125,-56.640625
9,1734037351701.0312,20.01953125,-515.625,-503.41796875,-61.03515625
10,1734037351704.9375,9.765625,-895.01953125,-579.1015625,-77.1484375
11,1734037351708.8438,31.25,-369.62890625,-323.73046875,-76.66015625
0,1734037351712.75,66.89453125,2.44140625,-264.6484375,-58.59375
1,1734037351716.6562,57.6171875,-436.03515625,-384.765625,-44.921875
2,1734037351720.5625,37.109375,-793.9453125,-448.2421875,-39.55078125
3,1734037351724.4688,57.12890625,-361.81640625,-322.265625,-42.48046875
4,1734037351728.375,104.4921875,-78.125,-288.0859375,-8.7890625
5,1734037351732.2812,107.421875,-546.875,-447.265625,12.6953125
6,1734037351736.1875,79.58984375,-965.33203125,-488.28125,2.44140625
7,1734037351740.0938,87.40234375,-847.16796875,-425.78125,6.34765625
8,1734037351744,101.07421875,-578.125,-306.15234375,5.859375
9,1734037351747.9062,90.33203125,-734.375,-532.71484375,29.296875
10,1734037351751.8125,58.10546875,-916.9921875,-639.6484375,25.87890625
11,1734037351755.7188,42.48046875,-512.6953125,-377.44140625,-4.8828125
0,1734037351759.625,58.59375,-502.44140625,-396.484375,24.4140625
1,1734037351763.5312,45.8984375,-573.73046875,-350.5859375,24.4140625
2,1734037351767.4375,14.6484375,-378.90625,-336.42578125,2.9296875
3,1734037351771.3438,1.953125,-346.6796875,-366.69921875,-7.8125
4,1734037351775.25,12.6953125,-562.01171875,-420.41015625,-21.484375
5,1734037351779.1562,9.27734375,-779.78515625,-511.71875,-28.3203125
6,1734037351783.0625,-15.625,-807.6171875,-459.47265625,-36.1328125
7,1734037351786.9688,-66.89453125,-691.89453125,-404.78515625,-60.546875
8,1734037351790.875,-55.17578125,-749.0234375,-530.76171875,-69.3359375
9,1734037351794.7812,-28.80859375,-770.99609375,-565.91796875,-54.19921875
10,1734037351798.6875,-55.6640625,-331.54296875,-350.5859375,-64.453125
11,1734037351802.5938,-102.5390625,-472.16796875,-415.52734375,-86.42578125
0,1734037351806.5,-93.75,-900.87890625,-625.48828125,-84.9609375
1,1734037351810.4062,-63.4765625,-922.36328125,-647.4609375,-68.84765625
2,1734037351814.3125,-75.68359375,-709.47265625,-444.82421875,-86.42578125
3,1734037351818.2188,-92.7734375,-852.5390625,-516.6015625,-100.5859375
4,1734037351822.125,-95.21484375,-981.93359375,-708.984375,-110.3515625
5,1734037351826.0312,-48.33984375,-980.46875,-719.23828125,-103.02734375
6,1734037351829.9375,-19.04296875,-937.5,-503.41796875,-100.5859375
7,1734037351833.8438,-60.05859375,-944.3359375,-535.64453125,-125.48828125
8,1734037351837.75,-94.7265625,-1000,-784.66796875,-138.671875
9,1734037351841.6562,-56.15234375,-888.18359375,-710.9375,-125.9765625
10,1734037351845.5625,-38.0859375,-546.875,-406.25,-121.09375
11,1734037351849.4688,-49.8046875,-692.87109375,-523.92578125,-119.62890625
0,1734037351853.375,-74.21875,-1000,-679.19921875,-132.8125
1,1734037351857.2812,-89.84375,-922.8515625,-583.49609375,-153.80859375
2,1734037351861.1875,-59.5703125,-691.89453125,-473.6328125,-153.80859375
3,1734037351865.0938,-56.15234375,-808.10546875,-566.40625,-147.4609375
4,1734037351869,-82.51953125,-1000,-848.6328125,-143.06640625
5,1734037351872.9062,-101.07421875,-997.55859375,-813.4765625,-156.73828125
6,1734037351876.8125,-76.66015625,-994.140625,-574.21875,-172.36328125
7,1734037351880.7188,-52.24609375,-999.0234375,-679.6875,-147.94921875
8,1734037351884.625,-97.65625,-997.55859375,-848.14453125,-142.08984375
9,1734037351888.5312,-121.09375,-1000,-681.15234375,-171.875
10,1734037351892.4375,-71.77734375,-847.65625,-531.73828125,-176.7578125
11,1734037351896.3438,-60.546875,-806.640625,-524.4140625,-146.484375
0,1734037351900.25,-94.7265625,-956.0546875,-582.03125,-145.99609375
1,1734037351904.1562,-114.2578125,-1000,-643.5546875,-161.1328125
2,1734037351908.0625,-91.30859375,-943.84765625,-604.00390625,-138.18359375
3,1734037351911.9688,-70.80078125,-888.671875,-564.453125,-121.58203125
4,1734037351915.875,-101.07421875,-936.5234375,-580.56640625,-139.6484375
5,1734037351919.7812,-132.8125,-993.65234375,-743.65234375,-145.5078125
6,1734037351923.6875,-122.55859375,-1000,-700.1953125,-128.90625
7,1734037351927.5938,-79.1015625,-996.09375,-709.47265625,-96.6796875
8,1734037351931.5,-89.35546875,-1000,-827.63671875,-91.796875
9,1734037351935.4062,-135.25390625,-991.2109375,-677.24609375,-114.2578125
10,1734037351939.3125,-111.81640625,-999.0234375,-646.484375,-114.2578125
11,1734037351943.2188,-68.84765625,-979.98046875,-633.7890625,-105.95703125
0,1734037351947.125,-71.77734375,-772.94921875,-514.16015625,-90.8203125
1,1734037351951.0312,-95.703125,-813.96484375,-561.5234375,-98.14453125
2,1734037351954.9375,-114.2578125,-1000,-707.51953125,-98.14453125
3,1734037351958.8438,-95.703125,-914.55078125,-638.671875,-83.984375
4,1734037351962.75,-71.77734375,-754.39453125,-520.01953125,-67.3828125
5,1734037351966.6562,-81.0546875,-914.0625,-623.046875,-64.94140625
6,1734037351970.5625,-112.79296875,-1000,-807.12890625,-85.9375
7,1734037351974.4688,-79.1015625,-991.2109375,-793.9453125,-67.3828125
8,1734037351978.375,-43.45703125,-750.9765625,-500.48828125,-67.87109375
9,1734037351982.2812,-58.10546875,-751.953125,-515.13671875,-70.3125
10,1734037351986.1875,-83.0078125,-1000,-785.64453125,-68.84765625
11,1734037351990.0938,-61.5234375,-950.1953125,-746.09375,-87.890625
0,1734037351994,-28.3203125,-694.82421875,-472.65625,-88.37890625
1,1734037351997.9062,-22.4609375,-656.73828125,-509.27734375,-108.3984375
2,1734037352001.8125,-39.55078125,-916.015625,-666.9921875,-159.1796875
3,1734037352005.7188,-41.9921875,-996.09375,-629.39453125,-188.96484375
4,1734037352009.625,28.80859375,-834.47265625,-534.1796875,-205.56640625
5,1734037352013.5312,78.61328125,-898.92578125,-604.00390625,-201.171875
6,1734037352017.4375,59.5703125,-1000,-725.09765625,-202.63671875
7,1734037352021.3438,39.0625,-1000,-737.3046875,-229.98046875
8,1734037352025.25,80.56640625,-924.31640625,-600.09765625,-230.46875
9,1734037352029.1562,124.0234375,-818.359375,-511.71875,-206.54296875
10,1734037352033.0625,123.046875,-960.9375,-743.1640625,-196.77734375
11,1734037352036.9688,96.6796875,-1000,-828.125,-220.21484375
0,1734037352040.875,95.703125,-973.14453125,-602.05078125,-229.00390625
1,1734037352044.7812,120.1171875,-918.9453125,-555.6640625,-208.0078125
2,1734037352048.6875,125,-952.1484375,-617.1875,-187.98828125
3,1734037352052.5938,81.0546875,-971.6796875,-634.27734375,-190.4296875
4,1734037352056.5,66.89453125,-972.16796875,-589.35546875,-203.125
5,1734037352060.4062,93.75,-986.81640625,-655.2734375,-171.38671875
6,1734037352064.3125,74.21875,-987.79296875,-720.703125,-141.11328125
7,1734037352068.2188,16.11328125,-973.6328125,-624.51171875,-156.73828125
8,1734037352072.125,-17.08984375,-966.796875,-593.75,-167.48046875
9,1734037352076.0312,-4.39453125,-996.09375,-664.55078125,-143.5546875
10,1734037352079.9375,-8.30078125,-860.83984375,-669.921875,-109.86328125
11,1734037352083.8438,-38.0859375,-759.27734375,-517.578125,-110.83984375
0,1734037352087.75,-75.1953125,-965.8203125,-606.4453125,-115.234375
1,1734037352091.6562,-61.03515625,-945.3125,-590.33203125,-97.65625
2,1734037352095.5625,-45.41015625,-882.32421875,-524.90234375,-62.01171875
3,1734037352099.4688,-49.31640625,-916.50390625,-539.55078125,-41.50390625
4,1734037352103.375,-75.1953125,-947.75390625,-589.84375,-58.10546875
5,1734037352107.2812,-65.91796875,-1000,-752.44140625,-35.15625
6,1734037352111.1875,-34.66796875,-985.83984375,-706.0546875,-18.06640625
7,1734037352115.0938,-48.33984375,-943.84765625,-497.55859375,-30.76171875
8,1734037352119,-73.73046875,-987.79296875,-611.81640625,-37.59765625
9,1734037352122.9062,-61.03515625,-986.328125,-632.32421875,-35.64453125
10,1734037352126.8125,-22.94921875,-623.53515625,-417.48046875,-27.83203125
11,1734037352130.7188,-28.80859375,-299.8046875,-367.1875,-20.01953125
0,1734037352134.625,-56.640625,-563.4765625,-466.30859375,-24.4140625
1,1734037352138.5312,-64.453125,-1000,-746.09375,-33.203125
2,1734037352142.4375,-53.22265625,-836.9140625,-644.53125,-39.0625
3,1734037352146.3438,-37.59765625,-204.1015625,-278.3203125,-43.45703125
4,1734037352150.25,-42.96875,-390.13671875,-453.125,-22.94921875
5,1734037352154.1562,-68.84765625,-986.81640625,-662.109375,-16.11328125
6,1734037352158.0625,-35.64453125,-929.19921875,-523.4375,-8.30078125
7,1734037352161.9688,7.8125,-625,-354.98046875,5.37109375
8,1734037352165.875,0.48828125,-666.50390625,-518.5546875,14.16015625
9,1734037352169.7812,-42.96875,-1000,-756.34765625,11.71875
10,1734037352173.6875,-38.57421875,-654.78515625,-430.6640625,-6.34765625
11,1734037352177.5938,5.859375,26.3671875,-251.46484375,12.6953125
0,1734037352181.5,25.390625,-194.3359375,-332.03125,19.53125
1,1734037352185.4062,-6.8359375,-583.49609375,-406.73828125,-10.25390625
2,1734037352189.3125,-29.78515625,-420.41015625,-404.78515625,-13.18359375
3,1734037352193.2188,4.39453125,-59.08203125,-283.203125,-4.8828125
4,1734037352197.125,19.53125,-270.5078125,-356.93359375,2.9296875
5,1734037352201.0312,-3.90625,-823.73046875,-506.8359375,3.90625
6,1734037352204.9375,-36.62109375,-936.5234375,-521.484375,-1.953125
7,1734037352208.8438,-20.99609375,-765.13671875,-396.484375,0.48828125
8,1734037352212.75,2.44140625,-783.203125,-542.48046875,20.01953125
9,1734037352216.6562,-17.578125,-1000,-736.328125,44.43359375
10,1734037352220.5625,-62.98828125,-715.8203125,-467.7734375,11.71875
11,1734037352224.4688,-50.78125,-329.1015625,-341.30859375,-4.8828125
0,1734037352228.375,-19.04296875,-277.83203125,-311.5234375,17.578125
1,1734037352232.2812,-38.0859375,-53.22265625,-268.06640625,5.37109375
2,1734037352236.1875,-76.66015625,-138.18359375,-355.46875,-27.83203125
3,1734037352240.0938,-58.59375,-448.2421875,-413.57421875,-36.1328125
4,1734037352244,-17.578125,-394.04296875,-374.0234375,-37.59765625
5,1734037352247.9062,-28.80859375,-311.5234375,-336.9140625,-31.73828125
6,1734037352251.8125,-64.453125,-648.4375,-424.8046875,-31.73828125
7,1734037352255.7188,-61.03515625,-950.1953125,-601.5625,-37.59765625
8,1734037352259.625,-25.87890625,-874.51171875,-555.17578125,-22.4609375
9,1734037352263.5312,-27.34375,-204.58984375,-255.37109375,-17.578125
10,1734037352267.4375,-46.38671875,-228.515625,-342.28515625,-13.671875
11,1734037352271.3438,-55.17578125,-886.71875,-566.89453125,-15.13671875
0,1734037352275.25,-30.2734375,-628.90625,-480.95703125,-24.4140625
1,1734037352279.1562,-2.9296875,163.57421875,-86.9140625,-19.53125
2,1734037352283.0625,-11.23046875,204.58984375,-155.76171875,-2.44140625
3,1734037352286.9688,-39.0625,-416.50390625,-420.8984375,3.41796875
4,1734037352290.875,-38.57421875,-425.29296875,-340.8203125,8.7890625
5,1734037352294.7812,-19.53125,-117.67578125,-306.640625,28.80859375
6,1734037352298.6875,-22.4609375,-325.1953125,-313.4765625,30.76171875
7,1734037352302.5938,-46.38671875,-791.015625,-583.984375,33.203125
8,1734037352306.5,-36.62109375,-957.03125,-645.5078125,35.15625
9,1734037352310.4062,-0.9765625,-119.62890625,-104.4921875,25.390625
10,1734037352314.3125,-1.46484375,304.19921875,-23.92578125,33.203125
11,1734037352318.2188,-28.80859375,-164.55078125,-284.1796875,33.203125
0,1734037352322.125,-33.69140625,-506.8359375,-415.52734375,18.06640625
1,1734037352326.0312,7.8125,-191.40625,-244.62890625,8.30078125
2,1734037352329.9375,20.01953125,137.20703125,-96.19140625,-1.46484375
3,1734037352333.8438,-21.97265625,-404.296875,-308.59375,-16.6015625
4,1734037352337.75,-58.59375,-595.21484375,-417.96875,-44.43359375
5,1734037352341.6562,-38.0859375,-410.64453125,-349.12109375,-52.24609375
6,1734037352345.5625,-8.7890625,-573.2421875,-416.9921875,-35.64453125
7,1734037352349.4688,-36.1328125,-692.87109375,-487.79296875,-54.6875
8,1734037352353.375,-74.70703125,-499.0234375,-405.76171875,-90.33203125
9,1734037352357.2812,-61.5234375,-322.75390625,-347.65625,-106.4453125
10,1734037352361.1875,-33.203125,-500,-412.109375,-103.515625
11,1734037352365.0938,-31.25,-697.75390625,-493.1640625,-83.49609375
0,1734037352369,-56.640625,-551.7578125,-459.9609375,-115.234375
1,1734037352372.9062,-46.875,-690.4296875,-461.42578125,-135.7421875
2,1734037352376.8125,-2.9296875,-841.30859375,-584.47265625,-110.3515625
3,1734037352380.7188,-2.44140625,-978.02734375,-710.9375,-102.5390625
4,1734037352384.625,-44.43359375,-900.87890625,-558.59375,-129.39453125
5,1734037352388.5312,-47.36328125,-985.83984375,-631.8359375,-155.76171875
6,1734037352392.4375,-2.9296875,-1000,-716.796875,-136.23046875
7,1734037352396.3438,-1.46484375,-992.1875,-696.2890625,-129.8828125
8,1734037352400.25,-15.625,-974.609375,-568.84765625,-145.5078125
9,1734037352404.1562,-32.2265625,-980.46875,-626.953125,-169.921875
10,1734037352408.0625,-18.5546875,-1000,-745.1171875,-173.33984375
11,1734037352411.9688,7.32421875,-916.9921875,-642.08984375,-161.62109375
0,1734037352415.875,-10.25390625,-847.65625,-509.765625,-190.91796875
1,1734037352419.7812,-32.71484375,-981.93359375,-678.7109375,-195.3125
2,1734037352423.6875,-14.16015625,-998.53515625,-690.91796875,-183.59375
3,1734037352427.5938,20.99609375,-869.140625,-518.5546875,-165.52734375
4,1734037352431.5,18.5546875,-871.09375,-539.0625,-143.06640625
5,1734037352435.4062,-11.71875,-997.0703125,-786.1328125,-139.6484375
6,1734037352439.3125,-36.1328125,-1000,-837.890625,-145.01953125
7,1734037352443.2188,-15.625,-990.234375,-604.98046875,-129.39453125
8,1734037352447.125,7.32421875,-836.42578125,-477.5390625,-99.12109375
9,1734037352451.0312,-18.5546875,-874.0234375,-671.875,-84.9609375
10,1734037352454.9375,-44.921875,-1000,-773.92578125,-79.58984375
11,1734037352458.8438,-15.625,-828.61328125,-480.46875,-63.96484375
0,1734037352462.75,12.20703125,-571.2890625,-412.109375,-42.48046875
1,1734037352466.6562,-5.859375,-770.99609375,-536.62109375,-43.45703125
2,1734037352470.5625,-29.78515625,-1000,-598.6328125,-45.8984375
3,1734037352474.4688,-11.71875,-823.73046875,-466.796875,-29.296875
4,1734037352478.375,6.8359375,-590.8203125,-425.78125,0.9765625
5,1734037352482.2812,3.41796875,-845.703125,-573.73046875,21.484375
6,1734037352486.1875,-25.87890625,-1000,-614.74609375,7.32421875
7,1734037352490.0938,-28.3203125,-951.171875,-532.2265625,9.27734375
8,1734037352494,7.32421875,-912.109375,-461.9140625,36.62109375
9,1734037352497.9062,7.32421875,-856.4453125,-452.1484375,44.921875
10,1734037352501.8125,-26.85546875,-721.19140625,-439.94140625,48.828125
11,1734037352505.7188,-37.59765625,-616.2109375,-424.8046875,40.52734375
0,1734037352509.625,-15.625,-477.05078125,-375.48828125,62.5
1,1734037352513.5312,-21.484375,-544.921875,-363.76953125,80.56640625
2,1734037352517.4375,-41.015625,-558.59375,-380.37109375,62.98828125
3,1734037352521.3438,-71.77734375,-524.90234375,-395.01953125,54.19921875
4,1734037352525.25,-48.33984375,-492.67578125,-355.95703125,70.3125
5,1734037352529.1562,-11.71875,-828.61328125,-591.796875,108.88671875
6,1734037352533.0625,-27.83203125,-1000,-689.94140625,112.79296875
7,1734037352536.9688,-59.08203125,-658.69140625,-400.390625,79.1015625
8,1734037352540.875,-41.50390625,-455.078125,-359.375,75.1953125
9,1734037352544.7812,1.953125,-277.34375,-290.52734375,89.35546875
10,1734037352548.6875,-17.08984375,-149.4140625,-202.1484375,83.49609375
11,1734037352552.5938,-58.59375,-331.54296875,-321.77734375,58.10546875
0,1734037352556.5,-51.7578125,-683.59375,-478.02734375,43.9453125
1,1734037352560.4062,-17.578125,-637.20703125,-409.66796875,41.015625
2,1734037352564.3125,-0.48828125,20.5078125,-140.13671875,38.57421875
3,1734037352568.2188,-27.34375,-124.51171875,-303.22265625,26.85546875
4,1734037352572.125,-40.0390625,-729.98046875,-487.3046875,6.34765625
5,1734037352576.0312,-0.48828125,-884.27734375,-433.59375,6.8359375
6,1734037352579.9375,15.625,-644.04296875,-333.49609375,-7.32421875
7,1734037352583.8438,-6.34765625,-825.68359375,-458.984375,-12.6953125
8,1734037352587.75,-26.3671875,-1000,-592.28515625,-10.25390625
9,1734037352591.6562,-9.27734375,-636.23046875,-406.25,-21.97265625
10,1734037352595.5625,23.4375,-165.52734375,-266.6015625,-6.8359375
11,1734037352599.4688,4.39453125,-296.38671875,-365.72265625,-14.6484375
0,1734037352603.375,-19.53125,-891.11328125,-608.88671875,-41.50390625
1,1734037352607.2812,-9.765625,-871.58203125,-506.8359375,-50.29296875
2,1734037352611.1875,0,-285.64453125,-285.64453125,-47.36328125
3,1734037352615.0938,-5.859375,-359.86328125,-365.72265625,-31.73828125
4,1734037352619,-41.50390625,-910.64453125,-726.5625,-24.4140625
5,1734037352622.9062,-61.03515625,-1000,-737.3046875,-33.203125
6,1734037352626.8125,-20.01953125,-772.94921875,-369.140625,-38.57421875
7,1734037352630.7188,4.8828125,-723.14453125,-476.5625,-18.5546875
8,1734037352634.625,-34.66796875,-907.71484375,-638.671875,-35.64453125
9,1734037352638.5312,-59.5703125,-711.42578125,-420.41015625,-51.7578125
10,1734037352642.4375,-20.01953125,-286.62109375,-309.5703125,-16.11328125
11,1734037352646.3438,-4.8828125,-383.30078125,-318.359375,10.25390625
0,1734037352650.25,-33.203125,-618.1640625,-384.765625,8.7890625
1,1734037352654.1562,-71.2890625,-528.80859375,-406.73828125,-1.953125
2,1734037352658.0625,-38.0859375,-425.78125,-374.0234375,10.7421875
3,1734037352661.9688,-3.90625,-563.96484375,-367.67578125,38.0859375
4,1734037352665.875,-35.15625,-571.2890625,-353.515625,42.96875
5,1734037352669.7812,-60.546875,-737.3046875,-495.1171875,28.80859375
6,1734037352673.6875,-42.48046875,-950.68359375,-481.93359375,34.1796875
7,1734037352677.5938,-18.06640625,-898.92578125,-436.03515625,65.4296875
8,1734037352681.5,-33.203125,-609.375,-351.5625,66.89453125
9,1734037352685.4062,-76.66015625,-264.16015625,-322.265625,41.9921875
10,1734037352689.3125,-82.03125,-308.59375,-348.14453125,39.55078125
11,1734037352693.2188,-45.41015625,-744.62890625,-506.8359375,81.0546875
0,1734037352697.125,-39.0625,-605.46875,-390.13671875,97.65625
1,1734037352701.0312,-64.94140625,20.5078125,-156.73828125,74.21875
2,1734037352704.9375,-82.51953125,-213.37890625,-342.28515625,55.17578125
3,1734037352708.8438,-58.10546875,-793.45703125,-486.81640625,71.77734375
4,1734037352712.75,-38.57421875,-469.23828125,-259.27734375,68.84765625
5,1734037352716.6562,-60.05859375,-13.18359375,-132.32421875,42.96875
6,1734037352720.5625,-77.1484375,-517.08984375,-416.015625,41.50390625
7,1734037352724.4688,-40.52734375,-1000,-628.90625,74.21875
8,1734037352728.375,-9.765625,-546.38671875,-300.78125,73.73046875
9,1734037352732.2812,-6.8359375,493.1640625,145.01953125,43.9453125
10,1734037352736.1875,-13.18359375,38.0859375,-175.29296875,35.15625
11,1734037352740.0938,18.06640625,-153.80859375,-189.453125,5.37109375
0,1734037352744,65.4296875,579.1015625,147.94921875,-1.46484375
1,1734037352747.9062,89.35546875,801.7578125,178.22265625,-4.8828125
2,1734037352751.8125,81.54296875,182.12890625,-84.9609375,-29.296875
3,1734037352755.7188,89.84375,-10.7421875,-88.37890625,-47.36328125
4,1734037352759.625,136.23046875,526.3671875,130.859375,-38.57421875
5,1734037352763.5312,157.2265625,511.71875,104.4921875,-13.671875
6,1734037352767.4375,146.484375,-291.9921875,-177.734375,9.27734375
7,1734037352771.3438,116.69921875,-632.32421875,-320.3125,-0.48828125
8,1734037352775.25,139.6484375,41.015625,29.78515625,8.30078125
9,1734037352779.1562,171.38671875,707.03125,277.34375,43.9453125
10,1734037352783.0625,140.13671875,89.35546875,-105.46875,60.546875
11,1734037352786.9688,89.35546875,-963.8671875,-451.66015625,62.5
0,1734037352790.875,101.5625,234.375,132.8125,62.5
1,1734037352794.7812,124.51171875,999.51171875,298.33984375,97.16796875
2,1734037352798.6875,89.84375,812.01171875,203.61328125,119.62890625
3,1734037352802.5938,36.62109375,885.7421875,232.91015625,107.91015625
4,1734037352806.5,40.52734375,969.23828125,254.39453125,119.140625
5,1734037352810.4062,66.40625,895.01953125,272.4609375,151.85546875
6,1734037352814.3125,61.03515625,493.1640625,227.5390625,177.734375
7,1734037352818.2188,3.90625,737.79296875,275.87890625,174.8046875
8,1734037352822.125,-35.64453125,999.51171875,362.3046875,163.0859375
9,1734037352826.0312,0.48828125,837.890625,310.05859375,183.10546875
10,1734037352829.9375,15.13671875,829.1015625,263.18359375,213.8671875
11,1734037352833.8438,-25.87890625,933.59375,351.07421875,207.51953125
0,1734037352837.75,-59.5703125,999.51171875,400.87890625,182.6171875
1,1734037352841.6562,-41.015625,723.14453125,222.16796875,193.359375
2,1734037352845.5625,-25.390625,583.984375,256.8359375,211.42578125
3,1734037352849.4688,-55.17578125,981.93359375,499.51171875,186.5234375
4,1734037352853.375,-86.42578125,971.6796875,384.765625,170.41015625
5,1734037352857.2812,-73.73046875,881.34765625,354.4921875,200.68359375
6,1734037352861.1875,-55.6640625,919.43359375,410.64453125,227.05078125
7,1734037352865.0938,-51.26953125,967.28515625,423.33984375,195.3125
8,1734037352869,-73.73046875,940.4296875,348.14453125,159.66796875
9,1734037352872.9062,-71.77734375,922.8515625,378.41796875,152.34375
10,1734037352876.8125,-35.15625,949.70703125,515.13671875,141.11328125
11,1734037352880.7188,-27.34375,935.546875,500.48828125,142.578125
0,1734037352884.625,-48.33984375,999.51171875,411.1328125,152.34375
1,1734037352888.5312,-49.31640625,351.07421875,140.13671875,158.203125
2,1734037352892.4375,-20.99609375,170.41015625,225.5859375,151.85546875
3,1734037352896.3438,-12.6953125,987.3046875,553.22265625,124.0234375
4,1734037352900.25,-22.94921875,999.51171875,447.75390625,107.91015625
5,1734037352904.1562,-22.4609375,122.0703125,70.3125,108.88671875
6,1734037352908.0625,4.8828125,12.6953125,136.23046875,100.09765625
7,1734037352911.9688,33.203125,999.51171875,534.66796875,78.125
8,1734037352915.875,28.3203125,888.18359375,375.48828125,59.08203125
9,1734037352919.7812,7.32421875,801.7578125,249.0234375,8.7890625
10,1734037352923.6875,20.99609375,970.703125,385.25390625,-23.4375
11,1734037352927.5938,58.59375,981.4453125,458.984375,-23.4375
0,1734037352931.5,66.89453125,848.6328125,297.8515625,-27.83203125
1,1734037352935.4062,31.25,854.00390625,203.125,-57.6171875
2,1734037352939.3125,29.78515625,941.89453125,295.8984375,-73.73046875
3,1734037352943.2188,52.734375,944.3359375,301.26953125,-67.3828125
4,1734037352947.125,52.734375,531.73828125,120.60546875,-65.91796875
5,1734037352951.0312,13.671875,94.23828125,-9.765625,-86.42578125
6,1734037352954.9375,-28.80859375,153.80859375,41.015625,-100.5859375
7,1734037352958.8438,-7.32421875,299.8046875,112.3046875,-96.6796875
8,1734037352962.75,-3.41796875,41.015625,43.9453125,-83.984375
9,1734037352966.6562,-37.109375,109.375,16.11328125,-94.23828125
10,1734037352970.5625,-67.3828125,461.9140625,86.9140625,-139.6484375
11,1734037352974.4688,-43.45703125,378.41796875,35.64453125,-145.99609375
0,1734037352978.375,-27.83203125,-48.33984375,-136.71875,-143.5546875
1,1734037352982.2812,-47.8515625,1.953125,-52.734375,-170.41015625
2,1734037352986.1875,-61.5234375,206.54296875,-74.21875,-194.82421875
3,1734037352990.0938,-44.921875,-37.59765625,-271.484375,-187.5
4,1734037352994,-12.6953125,-675.78125,-498.53515625,-157.71484375
5,1734037352997.9062,-19.04296875,-832.03125,-520.5078125,-143.5546875
6,1734037353001.8125,-41.015625,-482.421875,-346.19140625,-174.8046875
7,1734037353005.7188,-37.59765625,-786.1328125,-486.328125,-188.96484375
8,1734037353009.625,-16.11328125,-1000,-624.51171875,-163.0859375
9,1734037353013.5312,-17.578125,-440.4296875,-290.52734375,-156.73828125
10,1734037353017.4375,-36.1328125,127.9296875,-149.90234375,-163.57421875
11,1734037353021.3438,-46.875,-422.8515625,-409.66796875,-166.015625
0,1734037353025.25,-20.99609375,-391.6015625,-300.29296875,-142.08984375
1,1734037353029.1562,-7.8125,231.93359375,-45.41015625,-112.79296875
2,1734037353033.0625,-21.97265625,205.56640625,-108.88671875,-102.05078125
3,1734037353036.9688,-37.109375,-385.25390625,-363.28125,-96.6796875
4,1734037353040.875,-28.80859375,-488.28125,-325.68359375,-73.73046875
5,1734037353044.7812,-13.18359375,-188.4765625,-243.65234375,-32.2265625
6,1734037353048.6875,1.46484375,-157.2265625,-247.55859375,8.30078125
7,1734037353052.5938,-25.87890625,-528.3203125,-375.48828125,1.46484375
8,1734037353056.5,-37.109375,-584.47265625,-321.2890625,0
9,1734037353060.4062,-6.34765625,214.84375,-0.9765625,26.3671875
10,1734037353064.3125,-8.30078125,726.07421875,142.08984375,13.671875
11,1734037353068.2188,-30.2734375,-188.96484375,-234.375,18.5546875
0,1734037353072.125,-39.55078125,-419.921875,-183.10546875,25.390625
1,1734037353076.0312,-11.71875,606.4453125,187.5,29.78515625
2,1734037353079.9375,-2.44140625,933.10546875,224.609375,45.8984375
3,1734037353083.8438,-32.2265625,-203.125,-243.1640625,58.10546875
4,1734037353087.75,-49.8046875,-819.3359375,-425.78125,44.921875
5,1734037353091.6562,-21.484375,267.08984375,135.25390625,37.59765625
6,1734037353095.5625,7.32421875,584.47265625,178.22265625,64.94140625
7,1734037353099.4688,6.8359375,74.70703125,-35.15625,75.1953125
8,1734037353103.375,-8.30078125,364.2578125,79.1015625,41.015625
9,1734037353107.2812,10.25390625,999.51171875,296.875,52.734375
10,1734037353111.1875,41.50390625,752.9296875,179.6875,72.75390625
11,1734037353115.0938,51.26953125,666.015625,142.08984375,42.48046875
0,1734037353119,29.78515625,939.94140625,236.81640625,2.9296875
1,1734037353122.9062,41.50390625,958.0078125,228.02734375,-3.90625
2,1734037353126.8125,76.171875,709.9609375,166.9921875,24.90234375
3,1734037353130.7188,87.890625,769.04296875,210.9375,33.69140625
4,1734037353134.625,56.640625,892.08984375,204.1015625,2.9296875
5,1734037353138.5312,42.96875,381.34765625,44.921875,-25.390625
6,1734037353142.4375,78.61328125,12.6953125,-29.78515625,-29.296875
7,1734037353146.3438,81.0546875,94.7265625,11.71875,-42.96875
8,1734037353150.25,71.77734375,420.41015625,126.953125,-66.40625
9,1734037353154.1562,39.55078125,429.6875,17.578125,-106.4453125
10,1734037353158.0625,42.48046875,-207.03125,-174.31640625,-97.16796875
11,1734037353161.9688,79.58984375,21.484375,7.8125,-87.890625
0,1734037353165.875,58.59375,587.890625,133.30078125,-106.4453125
1,1734037353169.7812,15.13671875,-83.984375,-228.515625,-117.1875
2,1734037353173.6875,28.80859375,-617.1875,-361.81640625,-97.16796875
3,1734037353177.5938,53.7109375,34.66796875,-23.92578125,-73.73046875
4,1734037353181.5,40.52734375,547.36328125,90.33203125,-63.96484375
5,1734037353185.4062,1.953125,-17.578125,-209.9609375,-69.3359375
6,1734037353189.3125,1.953125,-829.1015625,-563.96484375,-63.4765625
7,1734037353193.2188,31.25,-1000,-521.484375,-26.3671875
8,1734037353197.125,30.2734375,-28.80859375,10.25390625,-29.296875
9,1734037353201.0312,4.8828125,317.87109375,-37.59765625,-52.24609375
10,1734037353204.9375,-29.78515625,-83.49609375,-218.26171875,-65.91796875
11,1734037353208.8438,-2.9296875,502.9296875,119.62890625,-34.1796875
0,1734037353212.75,22.4609375,870.60546875,192.3828125,2.44140625
1,1734037353216.6562,-7.8125,431.640625,-3.90625,2.44140625
2,1734037353220.5625,-44.43359375,118.1640625,-83.49609375,-8.7890625
3,1734037353224.4688,-40.52734375,289.0625,42.96875,6.34765625
4,1734037353228.375,-9.765625,582.51953125,162.109375,42.48046875
5,1734037353232.2812,-21.484375,25.87890625,-117.1875,63.96484375
6,1734037353236.1875,-60.05859375,-750.48828125,-430.17578125,51.7578125
7,1734037353240.0938,-58.59375,-135.7421875,-59.08203125,56.640625
8,1734037353244,-34.66796875,723.14453125,268.06640625,85.9375
9,1734037353247.9062,-34.66796875,281.25,-44.921875,102.05078125
10,1734037353251.8125,-61.5234375,-603.02734375,-305.6640625,80.078125
11,1734037353255.7188,-70.3125,404.78515625,143.5546875,63.4765625
0,1734037353259.625,-46.875,958.49609375,239.2578125,89.35546875
1,1734037353263.5312,-41.015625,827.63671875,189.94140625,89.35546875
2,1734037353267.4375,-55.6640625,901.3671875,227.5390625,63.4765625
3,1734037353271.3438,-59.08203125,897.4609375,206.0546875,33.69140625
4,1734037353275.25,-37.59765625,817.3828125,195.80078125,55.17578125
5,1734037353279.1562,-22.94921875,590.8203125,180.17578125,72.265625
6,1734037353283.0625,-43.9453125,578.61328125,161.1328125,51.26953125
7,1734037353286.9688,-63.4765625,468.75,100.5859375,35.15625
8,1734037353290.875,-32.71484375,314.453125,48.828125,48.33984375
9,1734037353294.7812,-7.8125,564.453125,165.0390625,61.03515625
10,1734037353298.6875,-7.32421875,920.41015625,286.62109375,41.015625
11,1734037353302.5938,-18.06640625,991.69921875,263.18359375,9.27734375
0,1734037353306.5,-18.06640625,535.15625,13.671875,11.71875
1,1734037353310.4062,3.41796875,-269.04296875,-194.3359375,54.6875
2,1734037353314.3125,4.39453125,469.23828125,205.56640625,46.875
3,1734037353318.2188,-10.25390625,999.51171875,288.57421875,30.76171875
4,1734037353322.125,-25.390625,616.69921875,164.55078125,31.73828125
5,1734037353326.0312,-3.90625,543.9453125,212.40234375,32.2265625
6,1734037353329.9375,7.32421875,844.23828125,244.140625,32.71484375
7,1734037353333.8438,-9.765625,826.171875,225.5859375,19.04296875
8,1734037353337.75,-35.15625,-79.1015625,-98.6328125,7.8125
9,1734037353341.6562,-19.53125,68.359375,27.83203125,25.390625
10,1734037353345.5625,9.765625,999.51171875,418.45703125,43.9453125
11,1734037353349.4688,1.46484375,999.51171875,358.88671875,54.6875
0,1734037353353.375,-29.296875,-3.41796875,-137.6953125,52.734375
1,1734037353357.2812,-28.80859375,-307.6171875,-135.7421875,54.6875
2,1734037353361.1875,-6.34765625,978.515625,426.26953125,66.89453125
3,1734037353365.0938,-13.671875,965.33203125,334.47265625,70.80078125
4,1734037353369,-51.26953125,707.51953125,210.9375,48.828125
5,1734037353372.9062,-40.0390625,665.0390625,236.328125,52.24609375
6,1734037353376.8125,-4.8828125,898.92578125,317.87109375,90.33203125
7,1734037353380.7188,-0.9765625,855.46875,250,105.95703125
8,1734037353384.625,-20.01953125,530.76171875,167.96875,89.35546875
9,1734037353388.5312,-47.36328125,799.8046875,284.1796875,66.40625
10,1734037353392.4375,-33.69140625,999.51171875,410.64453125,79.58984375
11,1734037353396.3438,-23.4375,767.08984375,217.7734375,106.93359375
0,1734037353400.25,-43.45703125,188.96484375,127.9296875,110.3515625
1,1734037353404.1562,-60.546875,660.15625,356.93359375,68.359375
2,1734037353408.0625,-30.76171875,999.51171875,402.34375,74.21875
3,1734037353411.9688,0,902.83203125,404.78515625,100.5859375
4,1734037353415.875,-1.46484375,959.9609375,389.6484375,108.88671875
5,1734037353419.7812,-33.203125,857.91015625,295.41015625,91.796875
6,1734037353423.6875,-35.15625,975.5859375,345.21484375,83.0078125
7,1734037353427.5938,-9.765625,627.9296875,232.91015625,133.30078125
8,1734037353431.5,-9.765625,220.703125,207.51953125,161.62109375
9,1734037353435.4062,-27.83203125,874.51171875,454.1015625,123.53515625
10,1734037353439.3125,-28.80859375,999.51171875,409.1796875,118.1640625
11,1734037353443.2188,-13.18359375,912.109375,442.3828125,153.3203125
0,1734037353447.125,-2.44140625,964.35546875,506.34765625,152.34375
1,1734037353451.0312,-14.16015625,943.359375,389.6484375,135.25390625
2,1734037353454.9375,-32.2265625,931.15234375,316.89453125,122.55859375
3,1734037353458.8438,-11.23046875,900.87890625,398.4375,142.08984375
4,1734037353462.75,0.48828125,916.9921875,457.51953125,163.0859375
5,1734037353466.6562,-30.76171875,977.5390625,387.6953125,151.3671875
6,1734037353470.5625,-54.19921875,860.3515625,280.76171875,111.328125
7,1734037353474.4688,-9.27734375,330.56640625,194.82421875,90.33203125
8,1734037353478.375,26.85546875,653.3203125,376.953125,68.84765625
9,1734037353482.2812,14.16015625,999.51171875,483.3984375,18.5546875
10,1734037353486.1875,-27.83203125,749.51171875,221.6796875,-31.73828125
11,1734037353490.0938,-19.04296875,739.2578125,223.6328125,-58.59375
0,1734037353494,32.71484375,967.28515625,419.921875,-59.08203125
1,1734037353497.9062,41.015625,999.51171875,382.32421875,-72.75390625
2,1734037353501.8125,11.23046875,630.37109375,185.05859375,-92.28515625
3,1734037353505.7188,6.34765625,306.640625,109.86328125,-114.2578125
4,1734037353509.625,36.1328125,569.3359375,179.19921875,-111.328125
5,1734037353513.5312,49.8046875,687.98828125,239.2578125,-119.140625
6,1734037353517.4375,35.15625,-156.73828125,-150.87890625,-144.53125
7,1734037353521.3438,17.578125,-1000,-562.5,-168.9453125
8,1734037353525.25,38.0859375,-190.4296875,-29.78515625,-208.49609375
9,1734037353529.1562,44.921875,574.21875,187.98828125,-232.91015625
10,1734037353533.0625,-2.44140625,35.64453125,-126.46484375,-238.28125
11,1734037353536.9688,-61.5234375,-354.98046875,-303.7109375,-265.625
0,1734037353540.875,-48.828125,-171.38671875,-257.8125,-270.5078125
1,1734037353544.7812,-43.45703125,-158.203125,-263.18359375,-257.8125
2,1734037353548.6875,-73.73046875,-493.65234375,-354.98046875,-271.97265625
3,1734037353552.5938,-113.76953125,-664.0625,-421.38671875,-311.03515625
4,1734037353556.5,-134.27734375,-772.4609375,-472.16796875,-312.01171875
5,1734037353560.4062,-108.88671875,-924.8046875,-556.15234375,-291.015625
6,1734037353564.3125,-111.328125,-1000,-656.73828125,-294.921875
7,1734037353568.2188,-160.64453125,-1000,-636.71875,-312.01171875
8,1734037353572.125,-189.453125,-979.98046875,-559.5703125,-324.70703125
9,1734037353576.0312,-164.55078125,-982.91015625,-642.578125,-299.31640625
10,1734037353579.9375,-145.5078125,-961.42578125,-695.80078125,-255.37109375
11,1734037353583.8438,-163.57421875,-931.15234375,-541.50390625,-248.046875
0,1734037353587.75,-180.17578125,-998.53515625,-614.2578125,-255.859375
1,1734037353591.6562,-158.69140625,-988.28125,-584.9609375,-221.6796875
2,1734037353595.5625,-151.85546875,-895.01953125,-506.8359375,-187.98828125
3,1734037353599.4688,-164.0625,-906.25,-516.6015625,-171.38671875
4,1734037353603.375,-171.875,-1000,-632.8125,-161.1328125
5,1734037353607.2812,-142.08984375,-1000,-701.171875,-136.23046875
6,1734037353611.1875,-101.07421875,-978.515625,-562.98828125,-96.6796875
7,1734037353615.0938,-76.66015625,-978.515625,-507.8125,-65.91796875
8,1734037353619,-111.328125,-987.79296875,-572.265625,-61.5234375
9,1734037353622.9062,-100.09765625,-1000,-759.765625,-49.8046875
10,1734037353626.8125,-41.015625,-979.98046875,-694.3359375,-18.06640625
11,1734037353630.7188,-40.52734375,-479.4921875,-314.94140625,-2.44140625
0,1734037353634.625,-45.41015625,-463.37890625,-405.76171875,1.46484375
1,1734037353638.5312,-34.66796875,-814.94140625,-491.69921875,8.30078125
2,1734037353642.4375,-1.46484375,-426.26953125,-303.22265625,24.4140625
3,1734037353646.3438,7.8125,-31.25,-216.30859375,30.76171875
4,1734037353650.25,-4.39453125,-326.66015625,-383.7890625,37.109375
5,1734037353654.1562,-9.765625,-904.296875,-539.55078125,17.08984375
6,1734037353658.0625,11.71875,-802.24609375,-376.953125,2.44140625
7,1734037353661.9688,37.59765625,-117.67578125,-88.37890625,6.8359375
8,1734037353665.875,17.578125,-193.84765625,-251.46484375,16.11328125
9,1734037353669.7812,-22.94921875,-819.82421875,-549.31640625,9.765625
10,1734037353673.6875,0,-527.34375,-289.55078125,-15.625
11,1734037353677.5938,34.1796875,-258.7890625,-211.42578125,-10.7421875
0,1734037353681.5,15.625,-562.01171875,-375.48828125,6.8359375
1,1734037353685.4062,-23.4375,-778.3203125,-471.19140625,-15.625
2,1734037353689.3125,-20.5078125,-325.1953125,-288.57421875,-41.015625
3,1734037353693.2188,18.06640625,36.62109375,-98.6328125,-25.87890625
4,1734037353697.125,25.390625,-186.03515625,-163.0859375,-28.80859375
5,1734037353701.0312,-26.3671875,-767.08984375,-445.3125,-84.9609375
6,1734037353704.9375,-56.15234375,-930.17578125,-474.609375,-131.8359375
7,1734037353708.8438,-35.15625,-856.93359375,-402.83203125,-152.83203125
8,1734037353712.75,-9.765625,-919.43359375,-597.65625,-184.08203125
9,1734037353716.6562,-13.18359375,-997.0703125,-729.4921875,-232.421875
10,1734037353720.5625,-49.8046875,-902.34375,-504.8828125,-291.50390625
11,1734037353724.4688,-33.69140625,-873.046875,-508.30078125,-311.03515625
0,1734037353728.375,-0.9765625,-851.07421875,-508.30078125,-298.828125
1,1734037353732.2812,-11.71875,-872.55859375,-541.9921875,-283.69140625
2,1734037353736.1875,-39.55078125,-997.0703125,-631.34765625,-272.4609375
3,1734037353740.0938,-25.390625,-994.62890625,-616.2109375,-258.7890625
4,1734037353744,-4.8828125,-986.81640625,-639.16015625,-244.62890625
5,1734037353747.9062,3.41796875,-1000,-632.32421875,-244.140625
6,1734037353751.8125,-25.390625,-995.60546875,-670.8984375,-239.74609375
7,1734037353755.7188,-49.31640625,-1000,-794.921875,-231.93359375
8,1734037353759.625,-13.671875,-998.53515625,-771.484375,-199.70703125
9,1734037353763.5312,-7.32421875,-773.4375,-487.79296875,-163.57421875
10,1734037353767.4375,-32.2265625,-726.5625,-489.2578125,-138.671875
11,1734037353771.3438,-29.296875,-971.6796875,-609.375,-120.60546875
0,1734037353775.25,4.39453125,-837.890625,-508.30078125,-87.40234375
1,1734037353779.1562,6.34765625,-458.49609375,-368.65234375,-68.359375
2,1734037353783.0625,-11.71875,-456.0546875,-417.96875,-82.03125
3,1734037353786.9688,-39.0625,-853.515625,-582.03125,-96.19140625
4,1734037353790.875,-25.87890625,-980.46875,-560.05859375,-87.40234375
5,1734037353794.7812,2.44140625,-854.00390625,-446.2890625,-67.87109375
6,1734037353798.6875,-9.765625,-892.08984375,-435.05859375,-53.22265625
7,1734037353802.5938,-30.2734375,-955.078125,-645.99609375,-30.2734375
8,1734037353806.5,-8.7890625,-1000,-819.82421875,-16.11328125
9,1734037353810.4062,14.6484375,-559.08203125,-422.36328125,-25.87890625
10,1734037353814.3125,15.13671875,97.16796875,-179.19921875,-15.625
11,1734037353818.2188,-5.37109375,-255.37109375,-339.84375,2.9296875
0,1734037353822.125,-17.578125,-355.46875,-338.37890625,-3.90625
1,1734037353826.0312,10.25390625,101.5625,-110.83984375,14.6484375
2,1734037353829.9375,27.34375,201.66015625,-26.3671875,41.50390625
3,1734037353833.8438,16.11328125,-122.55859375,-211.42578125,49.8046875
4,1734037353837.75,7.8125,-174.31640625,-287.59765625,49.8046875
5,1734037353841.6562,20.99609375,-156.25,-265.625,61.03515625
6,1734037353845.5625,36.1328125,-122.55859375,-134.765625,57.12890625
7,1734037353849.4688,35.64453125,-718.26171875,-399.4140625,66.89453125
8,1734037353853.375,9.765625,-674.8046875,-399.90234375,59.5703125
9,1734037353857.2812,14.16015625,284.66796875,65.4296875,40.0390625
10,1734037353861.1875,43.9453125,293.9453125,37.109375,60.05859375
11,1734037353865.0938,44.43359375,234.86328125,0,68.84765625
0,1734037353869,20.99609375,378.41796875,53.22265625,57.6171875
1,1734037353872.9062,10.25390625,326.171875,25.87890625,52.24609375
2,1734037353876.8125,33.203125,235.3515625,31.73828125,73.2421875
3,1734037353880.7188,49.31640625,364.74609375,98.6328125,81.54296875
4,1734037353884.625,4.39453125,306.15234375,42.48046875,75.68359375
5,1734037353888.5312,-12.6953125,-92.7734375,-137.20703125,69.3359375
6,1734037353892.4375,34.66796875,-540.0390625,-276.3671875,86.42578125
7,1734037353896.3438,45.41015625,-644.53125,-207.03125,97.65625
8,1734037353900.25,10.7421875,29.296875,27.83203125,79.1015625
9,1734037353904.1562,-26.85546875,161.62109375,20.5078125,57.12890625
10,1734037353908.0625,-4.8828125,-493.65234375,-200.1953125,61.03515625
11,1734037353911.9688,13.671875,-476.5625,-169.43359375,83.0078125
0,1734037353915.875,-7.32421875,695.80078125,260.25390625,69.3359375
1,1734037353919.7812,-19.53125,549.31640625,80.56640625,72.75390625
2,1734037353923.6875,0,263.671875,47.8515625,89.84375
3,1734037353927.5938,26.85546875,749.51171875,260.25390625,108.88671875
4,1734037353931.5,24.90234375,999.51171875,277.83203125,122.0703125
5,1734037353935.4062,-4.39453125,401.3671875,64.453125,128.41796875
6,1734037353939.3125,-11.23046875,-428.22265625,-137.6953125,142.08984375
7,1734037353943.2188,30.76171875,283.69140625,153.80859375,156.25
8,1734037353947.125,34.66796875,999.51171875,383.7890625,182.12890625
9,1734037353951.0312,-4.8828125,633.7890625,131.8359375,188.4765625
10,1734037353954.9375,1.46484375,340.33203125,64.94140625,172.8515625
11,1734037353958.8438,26.3671875,719.7265625,250,177.734375
0,1734037353962.75,33.203125,999.51171875,390.625,196.2890625
1,1734037353966.6562,15.625,589.35546875,145.01953125,216.30859375
2,1734037353970.5625,-13.671875,305.17578125,26.3671875,248.046875
3,1734037353974.4688,-5.859375,926.26953125,390.13671875,255.37109375
4,1734037353978.375,27.83203125,999.51171875,400.390625,257.8125
5,1734037353982.2812,29.78515625,547.8515625,189.94140625,265.625
6,1734037353986.1875,-16.6015625,278.80859375,126.46484375,240.72265625
7,1734037353990.0938,-19.53125,692.3828125,291.9921875,229.00390625
8,1734037353994,8.30078125,935.546875,348.14453125,241.69921875
9,1734037353997.9062,0.48828125,856.93359375,395.01953125,231.4453125
10,1734037354001.8125,-32.71484375,896.484375,377.9296875,215.33203125
11,1734037354005.7188,-38.57421875,931.640625,350.09765625,195.80078125
0,1734037354009.625,-12.20703125,999.51171875,429.6875,178.22265625
1,1734037354013.5312,0.9765625,354.4921875,161.1328125,204.1015625
2,1734037354017.4375,-31.73828125,-11.23046875,111.81640625,196.2890625
3,1734037354021.3438,-56.15234375,936.5234375,399.90234375,148.4375
4,1734037354025.25,-20.99609375,976.5625,358.88671875,138.18359375
5,1734037354029.1562,-6.8359375,667.48046875,302.24609375,140.625
6,1734037354033.0625,-27.34375,726.5625,259.27734375,133.30078125
7,1734037354036.9688,-48.33984375,978.515625,302.734375,114.74609375
8,1734037354040.875,-45.41015625,838.37890625,257.32421875,100.09765625
9,1734037354044.7812,-21.484375,382.8125,231.93359375,94.7265625
10,1734037354048.6875,-30.76171875,765.13671875,364.2578125,73.2421875
11,1734037354052.5938,-71.2890625,999.51171875,300.29296875,39.0625
0,1734037354056.5,-70.3125,712.890625,168.9453125,27.83203125
1,1734037354060.4062,-32.71484375,746.58203125,242.67578125,40.52734375
2,1734037354064.3125,-34.66796875,976.5625,361.328125,27.34375
3,1734037354068.2188,-59.08203125,934.08203125,270.99609375,15.13671875
4,1734037354072.125,-50.29296875,134.27734375,-16.6015625,28.80859375
5,1734037354076.0312,-23.92578125,-122.0703125,-6.8359375,29.78515625
6,1734037354079.9375,-21.484375,481.4453125,216.30859375,18.06640625
7,1734037354083.8438,-47.8515625,457.51953125,166.50390625,-5.37109375
8,1734037354087.75,-67.3828125,-361.81640625,-197.265625,-13.671875
9,1734037354091.6562,-37.109375,-963.8671875,-380.37109375,-6.34765625
10,1734037354095.5625,-8.30078125,98.14453125,142.08984375,-33.203125
11,1734037354099.4688,-31.73828125,710.44921875,188.4765625,-73.73046875
0,1734037354103.375,-57.12890625,183.59375,-65.91796875,-104.00390625
1,1734037354107.2812,-38.57421875,239.2578125,50.78125,-141.6015625
2,1734037354111.1875,-12.6953125,699.21875,197.265625,-175.29296875
3,1734037354115.0938,4.39453125,563.96484375,85.9375,-187.5
4,1734037354119,-23.4375,-25.87890625,-185.05859375,-195.80078125
5,1734037354122.9062,-54.6875,-326.66015625,-312.01171875,-207.51953125
6,1734037354126.8125,-21.97265625,-133.7890625,-141.6015625,-195.80078125
7,1734037354130.7188,-4.8828125,-121.09375,-145.5078125,-176.7578125
8,1734037354134.625,-35.64453125,-829.58984375,-556.15234375,-163.0859375
9,1734037354138.5312,-37.109375,-681.15234375,-448.2421875,-174.8046875
10,1734037354142.4375,-15.13671875,227.05078125,11.71875,-169.43359375
11,1734037354146.3438,1.953125,190.91796875,-43.45703125,-138.671875
0,1734037354150.25,3.90625,-20.5078125,-166.9921875,-124.51171875
1,1734037354154.1562,-16.6015625,96.6796875,-81.54296875,-114.2578125
2,1734037354158.0625,-2.44140625,272.94921875,3.90625,-94.7265625
3,1734037354161.9688,19.53125,247.55859375,-14.16015625,-71.2890625
4,1734037354165.875,19.04296875,178.7109375,-53.22265625,-49.8046875
5,1734037354169.7812,11.23046875,-88.8671875,-213.37890625,-42.48046875
6,1734037354173.6875,42.48046875,-144.04296875,-200.1953125,-40.0390625
7,1734037354177.5938,89.84375,-350.5859375,-218.75,5.37109375
8,1734037354181.5,95.21484375,-894.53125,-400.87890625,43.45703125
9,1734037354185.4062,79.58984375,-258.7890625,-28.80859375,13.18359375
10,1734037354189.3125,84.9609375,369.62890625,127.9296875,-22.4609375
11,1734037354193.2188,135.25390625,282.71484375,62.5,5.859375
0,1734037354197.125,145.5078125,573.73046875,178.7109375,33.69140625
1,1734037354201.0312,105.46875,973.6328125,243.65234375,23.4375
2,1734037354204.9375,87.890625,633.7890625,103.515625,23.92578125
3,1734037354208.8438,127.9296875,500,149.4140625,46.875
4,1734037354212.75,145.01953125,853.02734375,275.87890625,58.59375
5,1734037354216.6562,89.35546875,708.49609375,189.94140625,75.1953125
6,1734037354220.5625,42.48046875,178.22265625,49.31640625,83.0078125
7,1734037354224.4688,51.26953125,-199.21875,-29.78515625,103.515625
8,1734037354228.375,55.17578125,477.5390625,207.03125,115.72265625
9,1734037354232.2812,26.85546875,999.51171875,344.7265625,111.328125
10,1734037354236.1875,-22.94921875,625.48828125,115.72265625,106.93359375
11,1734037354240.0938,-38.57421875,260.7421875,50.29296875,93.75
0,1734037354244,-42.48046875,676.7578125,241.2109375,99.12109375
1,1734037354247.9062,-76.171875,999.51171875,363.76953125,104.4921875
2,1734037354251.8125,-105.46875,387.20703125,-11.71875,99.12109375
3,1734037354255.7188,-129.8828125,-67.3828125,-131.8359375,78.61328125
4,1734037354259.625,-109.86328125,748.53515625,264.6484375,48.33984375
5,1734037354263.5312,-98.14453125,745.60546875,223.6328125,42.96875
6,1734037354267.4375,-133.30078125,-11.71875,-49.8046875,16.6015625
7,1734037354271.3438,-144.04296875,-408.69140625,-193.359375,-25.390625
8,1734037354275.25,-110.83984375,129.39453125,72.265625,-58.59375
9,1734037354279.1562,-76.171875,668.9453125,177.24609375,-83.984375
10,1734037354283.0625,-79.1015625,-77.1484375,-124.0234375,-68.359375
11,1734037354286.9688,-102.05078125,-428.7109375,-155.76171875,-75.68359375
0,1734037354290.875,-72.75390625,237.79296875,47.8515625,-80.078125
1,1734037354294.7812,-15.625,521.97265625,127.9296875,-34.1796875
2,1734037354298.6875,2.44140625,-342.7734375,-278.80859375,24.90234375
3,1734037354302.5938,-22.94921875,-962.40234375,-521.97265625,31.25
4,1734037354306.5,-11.23046875,-173.33984375,-56.15234375,-4.8828125
5,1734037354310.4062,37.59765625,76.171875,43.45703125,6.34765625
6,1734037354314.3125,34.1796875,-262.6953125,-78.125,32.71484375
7,1734037354318.2188,15.13671875,27.34375,20.01953125,25.87890625
8,1734037354322.125,24.4140625,563.4765625,176.26953125,22.4609375
9,1734037354326.0312,50.78125,373.046875,48.33984375,42.48046875
10,1734037354329.9375,72.265625,56.640625,-12.20703125,49.8046875
11,1734037354333.8438,43.45703125,467.28515625,159.66796875,27.83203125
0,1734037354337.75,14.16015625,617.1875,155.2734375,9.27734375
1,1734037354341.6562,40.0390625,186.03515625,-16.6015625,14.16015625
2,1734037354345.5625,44.921875,244.140625,30.2734375,25.390625
3,1734037354349.4688,39.55078125,826.171875,246.09375,31.25
4,1734037354353.375,25.87890625,457.03125,93.26171875,35.15625
5,1734037354357.2812,10.7421875,-323.73046875,-105.46875,45.8984375
6,1734037354361.1875,36.1328125,-222.65625,-10.25390625,69.82421875
7,1734037354365.0938,41.015625,451.171875,213.8671875,80.078125
8,1734037354369,-11.71875,357.91015625,117.1875,74.70703125
9,1734037354372.9062,-21.484375,-166.50390625,-13.671875,71.77734375
10,1734037354376.8125,7.8125,280.2734375,166.9921875,95.703125
11,1734037354380.7188,12.20703125,994.140625,345.703125,118.65234375
0,1734037354384.625,-18.5546875,952.63671875,254.8828125,119.140625
1,1734037354388.5312,-37.109375,-151.3671875,-171.875,132.32421875
2,1734037354392.4375,-15.625,-752.44140625,-176.7578125,152.34375
3,1734037354396.3438,4.8828125,641.6015625,376.46484375,132.8125
4,1734037354400.25,-3.90625,928.22265625,265.625,118.65234375
5,1734037354404.1562,-31.25,206.0546875,62.5,111.328125
6,1734037354408.0625,-11.23046875,345.703125,176.26953125,112.79296875
7,1734037354411.9688,10.25390625,807.12890625,277.83203125,115.234375
8,1734037354415.875,-4.8828125,774.90234375,206.54296875,104.00390625
9,1734037354419.7812,-22.4609375,-412.59765625,-207.51953125,104.4921875
10,1734037354423.6875,-5.859375,-149.90234375,15.13671875,100.5859375
11,1734037354427.5938,28.3203125,999.51171875,431.640625,107.421875
0,1734037354431.5,23.4375,783.69140625,217.28515625,109.375
1,1734037354435.4062,-12.6953125,665.52734375,149.90234375,83.49609375
2,1734037354439.3125,-3.41796875,871.09375,275.87890625,67.87109375
3,1734037354443.2188,19.53125,969.7265625,325.68359375,72.75390625
4,1734037354447.125,20.99609375,750.9765625,266.11328125,76.66015625
5,1734037354451.0312,5.859375,375.48828125,147.94921875,57.12890625
6,1734037354454.9375,-24.4140625,206.54296875,99.12109375,26.3671875
7,1734037354458.8438,-14.6484375,463.37890625,216.796875,14.6484375
8,1734037354462.75,-0.48828125,246.09375,125.48828125,36.1328125
9,1734037354466.6562,-20.01953125,-908.203125,-408.69140625,44.43359375
10,1734037354470.5625,-53.7109375,-517.578125,-218.75,0.48828125
11,1734037354474.4688,-24.90234375,721.6796875,289.0625,-5.37109375
0,1734037354478.375,15.13671875,840.8203125,261.71875,20.01953125
1,1734037354482.2812,4.39453125,879.8828125,275.87890625,25.390625
2,1734037354486.1875,-20.01953125,846.6796875,212.890625,19.53125
3,1734037354490.0938,-1.953125,575.1953125,150.390625,17.578125
4,1734037354494,33.203125,590.8203125,212.890625,17.578125
5,1734037354497.9062,36.1328125,574.70703125,201.66015625,26.3671875
6,1734037354501.8125,15.625,220.703125,61.5234375,27.34375
7,1734037354505.7188,8.30078125,-33.69140625,-4.8828125,23.4375
8,1734037354509.625,35.15625,-373.53515625,-92.7734375,48.33984375
9,1734037354513.5312,47.36328125,248.046875,148.4375,59.08203125
10,1734037354517.4375,26.3671875,698.73046875,196.2890625,45.41015625
11,1734037354521.3438,-5.37109375,-59.5703125,-142.08984375,28.80859375
0,1734037354525.25,19.04296875,-80.078125,-28.80859375,37.109375
1,1734037354529.1562,26.85546875,697.75390625,261.23046875,44.921875
2,1734037354533.0625,-3.41796875,769.53125,197.265625,43.45703125
3,1734037354536.9688,-26.85546875,9.27734375,-42.96875,31.25
4,1734037354540.875,-23.92578125,-96.6796875,-12.20703125,16.11328125
5,1734037354544.7812,5.37109375,317.3828125,138.671875,32.71484375
6,1734037354548.6875,5.859375,226.07421875,125,41.015625
7,1734037354552.5938,-25.390625,-431.640625,-284.66796875,27.83203125
8,1734037354556.5,-20.5078125,-971.6796875,-491.69921875,29.78515625
9,1734037354560.4062,9.765625,75.1953125,115.72265625,24.90234375
10,1734037354564.3125,18.5546875,752.9296875,218.75,18.5546875
11,1734037354568.2188,-13.671875,269.53125,38.57421875,5.37109375
0,1734037354572.125,-23.92578125,196.2890625,104.00390625,-15.13671875
1,1734037354576.0312,22.4609375,571.77734375,193.84765625,-10.7421875
2,1734037354579.9375,39.55078125,408.69140625,143.5546875,5.859375
3,1734037354583.8438,21.484375,-108.3984375,-69.82421875,5.859375
4,1734037354587.75,7.32421875,-89.35546875,-76.66015625,-10.25390625
5,1734037354591.6562,24.90234375,79.58984375,82.51953125,-13.671875
6,1734037354595.5625,48.33984375,23.4375,51.7578125,-6.34765625
7,1734037354599.4688,42.48046875,-558.59375,-231.4453125,0.48828125
8,1734037354603.375,15.13671875,-455.56640625,-130.37109375,-20.99609375
9,1734037354607.2812,25.87890625,350.5859375,146.97265625,-39.0625
10,1734037354611.1875,61.5234375,287.109375,20.99609375,-18.5546875
11,1734037354615.0938,46.875,149.4140625,-19.04296875,-14.16015625
0,1734037354619,13.671875,233.88671875,24.90234375,-54.19921875
1,1734037354622.9062,9.27734375,190.91796875,30.2734375,-64.453125
2,1734037354626.8125,34.1796875,22.94921875,-19.53125,-46.875
3,1734037354630.7188,36.1328125,75.68359375,3.41796875,-46.38671875
4,1734037354634.625,-7.32421875,19.53125,-80.078125,-61.03515625
5,1734037354638.5312,-15.625,-456.0546875,-292.48046875,-76.66015625
6,1734037354642.4375,5.37109375,-728.02734375,-405.76171875,-59.5703125
7,1734037354646.3438,22.4609375,-958.984375,-496.09375,-37.109375
8,1734037354650.25,-6.8359375,-568.359375,-250.9765625,-59.08203125
9,1734037354654.1562,-54.19921875,-166.50390625,-239.74609375,-91.30859375
10,1734037354658.0625,-30.2734375,-558.10546875,-362.3046875,-68.84765625
11,1734037354661.9688,-13.18359375,-338.8671875,-90.8203125,-54.6875
0,1734037354665.875,-38.0859375,356.4453125,113.28125,-66.40625
1,1734037354669.7812,-70.80078125,-71.77734375,-184.5703125,-79.58984375
2,1734037354673.6875,-64.94140625,-425.29296875,-248.046875,-92.7734375
3,1734037354677.5938,-39.0625,80.078125,41.015625,-80.56640625
4,1734037354681.5,-29.296875,340.8203125,48.33984375,-70.3125
5,1734037354685.4062,-44.43359375,-333.984375,-305.17578125,-81.0546875
6,1734037354689.3125,-39.0625,-808.10546875,-409.66796875,-89.84375
7,1734037354693.2188,-3.90625,-458.0078125,-219.23828125,-80.56640625
8,1734037354697.125,13.18359375,157.71484375,37.109375,-70.80078125
9,1734037354701.0312,-11.23046875,-138.18359375,-202.1484375,-55.6640625
10,1734037354704.9375,-23.92578125,-731.4453125,-516.11328125,-61.03515625
11,1734037354708.8438,6.34765625,-84.47265625,-73.2421875,-69.3359375
0,1734037354712.75,33.69140625,488.76953125,183.59375,-57.12890625
1,1734037354716.6562,12.6953125,-88.37890625,-195.3125,-49.31640625
2,1734037354720.5625,-26.85546875,-958.49609375,-577.1484375,-62.5
3,1734037354724.4688,3.90625,-246.58203125,-85.44921875,-66.40625
4,1734037354728.375,30.2734375,387.6953125,161.1328125,-46.875
5,1734037354732.2812,20.5078125,-319.82421875,-180.6640625,-36.62109375
6,1734037354736.1875,-1.953125,-809.08203125,-401.85546875,-35.15625
7,1734037354740.0938,5.859375,-316.89453125,-127.44140625,-22.94921875
8,1734037354744,43.9453125,310.546875,147.4609375,0.48828125
9,1734037354747.9062,43.9453125,55.6640625,36.62109375,22.4609375
10,1734037354751.8125,9.765625,-120.60546875,-1.46484375,19.04296875
11,1734037354755.7188,-1.953125,472.65625,173.828125,-0.48828125
0,1734037354759.625,20.99609375,887.20703125,259.27734375,13.18359375
1,1734037354763.5312,42.96875,111.328125,-79.1015625,57.6171875
2,1734037354767.4375,20.01953125,-837.890625,-326.66015625,59.08203125
3,1734037354771.3438,-12.20703125,199.21875,142.578125,31.73828125
4,1734037354775.25,23.92578125,860.83984375,280.76171875,48.33984375
5,1734037354779.1562,53.7109375,607.91015625,195.80078125,67.3828125
6,1734037354783.0625,39.55078125,582.51953125,212.40234375,70.80078125
7,1734037354786.9688,9.27734375,850.09765625,269.04296875,68.359375
8,1734037354790.875,26.85546875,850.09765625,233.3984375,86.42578125
9,1734037354794.7812,51.26953125,386.23046875,241.69921875,105.46875
10,1734037354798.6875,22.4609375,719.23828125,353.02734375,106.4453125
11,1734037354802.5938,-11.23046875,958.0078125,242.67578125,116.2109375
0,1734037354806.5,2.9296875,443.84765625,82.03125,131.8359375
1,1734037354810.4062,17.08984375,500.48828125,203.125,135.25390625
2,1734037354814.3125,-4.39453125,979.4921875,428.22265625,125
3,1734037354818.2188,-40.0390625,997.0703125,342.28515625,127.44140625
4,1734037354822.125,-52.24609375,615.72265625,173.828125,124.51171875
5,1734037354826.0312,-38.57421875,522.94921875,208.0078125,126.46484375
6,1734037354829.9375,-20.99609375,904.78515625,320.3125,139.6484375
7,1734037354833.8438,-27.34375,960.9375,309.08203125,142.08984375
8,1734037354837.75,-47.8515625,125.9765625,37.59765625,121.58203125
9,1734037354841.6562,-34.66796875,136.23046875,106.93359375,91.796875
10,1734037354845.5625,2.9296875,996.09375,434.08203125,68.84765625
11,1734037354849.4688,6.8359375,999.51171875,395.01953125,23.92578125
0,1734037354853.375,-17.578125,30.76171875,-75.1953125,-20.01953125
1,1734037354857.2812,11.71875,-315.91796875,-102.5390625,-44.43359375
2,1734037354861.1875,57.12890625,834.47265625,347.65625,-61.5234375
3,1734037354865.0938,66.89453125,873.53515625,229.00390625,-66.40625
4,1734037354869,46.38671875,367.1875,134.765625,-83.984375
5,1734037354872.9062,43.45703125,205.56640625,170.8984375,-83.984375
6,1734037354876.8125,73.73046875,653.80859375,291.015625,-70.80078125
7,1734037354880.7188,80.078125,702.1484375,228.515625,-71.2890625
8,1734037354884.625,55.17578125,202.1484375,95.21484375,-79.1015625
9,1734037354888.5312,34.66796875,414.55078125,183.10546875,-96.6796875
10,1734037354892.4375,58.59375,994.140625,311.03515625,-89.84375
11,1734037354896.3438,72.265625,680.17578125,124.0234375,-66.89453125
0,1734037354900.25,32.71484375,33.203125,-34.66796875,-65.91796875
1,1734037354904.1562,-2.44140625,330.078125,147.94921875,-87.890625
2,1734037354908.0625,14.6484375,711.42578125,194.3359375,-86.9140625
3,1734037354911.9688,27.83203125,554.6875,145.99609375,-63.4765625
4,1734037354915.875,10.7421875,328.125,67.3828125,-44.43359375
5,1734037354919.7812,-26.3671875,-0.9765625,-52.24609375,-51.7578125
6,1734037354923.6875,-40.52734375,-46.875,22.94921875,-62.5
7,1734037354927.5938,-27.34375,-348.6328125,-123.53515625,-31.25
8,1734037354931.5,-23.4375,-917.48046875,-387.20703125,-0.48828125
9,1734037354935.4062,-62.01171875,-184.5703125,-46.38671875,-8.7890625
10,1734037354939.3125,-79.58984375,264.6484375,96.6796875,-21.484375
11,1734037354943.2188,-52.24609375,-496.09375,-265.13671875,0
0,1734037354947.125,-43.45703125,-647.94921875,-242.1875,28.80859375
1,1734037354951.0312,-76.171875,227.05078125,115.234375,9.765625
2,1734037354954.9375,-102.05078125,53.7109375,-90.33203125,-9.765625
3,1734037354958.8438,-83.984375,-112.3046875,-69.3359375,2.9296875
4,1734037354962.75,-70.80078125,269.04296875,92.7734375,11.23046875
5,1734037354966.6562,-80.078125,74.70703125,-84.9609375,6.34765625
6,1734037354970.5625,-105.95703125,-585.44921875,-378.41796875,-6.8359375
7,1734037354974.4688,-94.23828125,-762.20703125,-360.83984375,-20.01953125
8,1734037354978.375,-65.91796875,-47.8515625,-35.64453125,-18.06640625
9,1734037354982.2812,-59.5703125,457.03125,130.859375,-7.8125
10,1734037354986.1875,-62.98828125,-185.05859375,-278.80859375,-14.16015625
11,1734037354990.0938,-58.10546875,-931.15234375,-576.66015625,-19.04296875
0,1734037354994,-28.80859375,-190.91796875,-48.33984375,-15.13671875
1,1734037354997.9062,-3.41796875,493.1640625,118.1640625,0.48828125
2,1734037355001.8125,-18.5546875,-130.37109375,-170.41015625,7.32421875
3,1734037355005.7188,-12.6953125,-397.94921875,-243.65234375,4.8828125
4,1734037355009.625,37.109375,127.9296875,-37.109375,20.5078125
5,1734037355013.5312,60.546875,98.14453125,7.32421875,35.64453125
6,1734037355017.4375,39.0625,-538.57421875,-319.3359375,34.66796875
7,1734037355021.3438,22.4609375,-897.94921875,-467.7734375,17.08984375
8,1734037355025.25,54.19921875,-137.20703125,-68.359375,-1.46484375
9,1734037355029.1562,80.078125,427.734375,138.18359375,-5.37109375
10,1734037355033.0625,68.359375,-398.92578125,-288.0859375,6.34765625
11,1734037355036.9688,38.57421875,-778.3203125,-438.96484375,0
0,1734037355040.875,41.50390625,167.96875,65.4296875,-23.4375
1,1734037355044.7812,59.5703125,662.109375,194.82421875,-15.13671875
2,1734037355048.6875,50.29296875,-279.78515625,-279.296875,23.4375
3,1734037355052.5938,5.37109375,-758.7890625,-375.9765625,23.92578125
4,1734037355056.5,-15.13671875,249.0234375,111.81640625,8.30078125
5,1734037355060.4062,20.99609375,351.5625,101.5625,41.015625
6,1734037355064.3125,20.99609375,27.83203125,23.92578125,60.546875
7,1734037355068.2188,-31.25,245.1171875,59.08203125,38.0859375
8,1734037355072.125,-44.43359375,565.91796875,145.5078125,26.85546875
9,1734037355076.0312,-10.25390625,458.984375,83.984375,43.9453125
10,1734037355079.9375,4.39453125,-93.26171875,-60.05859375,55.17578125
11,1734037355083.8438,-2.44140625,227.05078125,88.37890625,54.19921875
0,1734037355087.75,-15.625,370.60546875,112.79296875,43.9453125
1,1734037355091.6562,13.671875,-59.08203125,-65.4296875,60.05859375
2,1734037355095.5625,53.7109375,204.1015625,11.71875,82.03125
3,1734037355099.4688,46.38671875,884.765625,267.08984375,92.7734375
4,1734037355103.375,24.90234375,747.0703125,146.97265625,92.28515625
5,1734037355107.2812,34.1796875,-34.1796875,-74.21875,87.40234375
6,1734037355111.1875,47.8515625,-58.59375,0,87.890625
7,1734037355115.0938,36.62109375,428.7109375,166.015625,83.49609375
8,1734037355119,-5.37109375,543.45703125,166.015625,71.2890625
9,1734037355122.9062,-0.9765625,-157.71484375,-151.3671875,67.3828125
10,1734037355126.8125,20.99609375,-528.80859375,-156.25,73.2421875
11,1734037355130.7188,9.27734375,730.95703125,335.9375,61.5234375
0,1734037355134.625,-21.484375,883.7890625,184.08203125,51.26953125
1,1734037355138.5312,-41.9921875,421.38671875,94.23828125,52.24609375
2,1734037355142.4375,-19.53125,543.9453125,210.44921875,65.4296875
3,1734037355146.3438,-8.30078125,793.45703125,259.765625,76.171875
4,1734037355150.25,-30.2734375,812.5,241.69921875,73.2421875
5,1734037355154.1562,-68.359375,-441.40625,-250.48828125,53.7109375
6,1734037355158.0625,-56.640625,-677.24609375,-201.66015625,52.24609375
7,1734037355161.9688,-28.80859375,774.4140625,357.91015625,63.4765625
8,1734037355165.875,-36.1328125,749.51171875,141.6015625,53.7109375
9,1734037355169.7812,-66.89453125,160.15625,-37.109375,22.94921875
10,1734037355173.6875,-48.828125,540.0390625,192.3828125,9.765625
11,1734037355177.5938,-0.48828125,944.82421875,282.71484375,15.13671875
0,1734037355181.5,2.44140625,655.76171875,114.2578125,15.13671875
1,1734037355185.4062,-26.85546875,245.60546875,-11.23046875,-4.39453125
2,1734037355189.3125,-26.85546875,398.4375,109.86328125,-19.53125
3,1734037355193.2188,1.46484375,673.33984375,187.5,-6.34765625
4,1734037355197.125,17.578125,445.3125,119.62890625,4.8828125
5,1734037355201.0312,6.8359375,-62.5,-13.671875,-13.18359375
6,1734037355204.9375,-18.5546875,-238.76953125,-120.60546875,-34.66796875
7,1734037355208.8438,-8.30078125,-96.19140625,-24.90234375,-41.50390625
8,1734037355212.75,1.953125,-199.70703125,-29.78515625,-51.7578125
9,1734037355216.6562,-25.87890625,-62.01171875,-35.15625,-66.40625
10,1734037355220.5625,-51.26953125,223.14453125,53.7109375,-90.8203125
11,1734037355224.4688,-37.59765625,286.1328125,67.3828125,-102.5390625
0,1734037355228.375,-10.7421875,-268.06640625,-160.15625,-88.8671875
1,1734037355232.2812,-28.80859375,-424.31640625,-167.96875,-89.35546875
2,1734037355236.1875,-75.1953125,58.59375,10.25390625,-114.2578125
3,1734037355240.0938,-55.6640625,-13.18359375,-35.64453125,-120.1171875
4,1734037355244,-34.1796875,-592.28515625,-301.7578125,-103.02734375
5,1734037355247.9062,-42.96875,-816.89453125,-413.57421875,-100.5859375
6,1734037355251.8125,-57.12890625,-445.80078125,-247.0703125,-116.69921875
7,1734037355255.7188,-60.05859375,-649.4140625,-375.48828125,-110.83984375
8,1734037355259.625,-24.4140625,-629.8828125,-350.09765625,-77.1484375
9,1734037355263.5312,-13.671875,-2.9296875,-24.90234375,-68.359375
10,1734037355267.4375,-40.0390625,190.4296875,-23.4375,-85.9375
11,1734037355271.3438,-61.03515625,-517.08984375,-440.4296875,-87.890625
0,1734037355275.25,-34.1796875,-804.6875,-509.765625,-65.4296875
1,1734037355279.1562,-11.71875,-88.37890625,-60.05859375,-66.89453125
2,1734037355283.0625,-18.06640625,145.5078125,1.953125,-83.0078125
3,1734037355286.9688,-38.0859375,-568.359375,-440.4296875,-89.35546875
4,1734037355290.875,-38.57421875,-785.15625,-502.44140625,-81.0546875
5,1734037355294.7812,-20.5078125,-307.6171875,-193.84765625,-76.66015625
6,1734037355298.6875,-32.2265625,-396.97265625,-303.22265625,-70.80078125
7,1734037355302.5938,-57.6171875,-809.5703125,-461.42578125,-64.453125
8,1734037355306.5,-45.41015625,-655.2734375,-321.2890625,-60.546875
9,1734037355310.4062,-36.1328125,-98.14453125,-84.9609375,-54.19921875
10,1734037355314.3125,-48.33984375,-159.66796875,-119.62890625,-34.66796875
11,1734037355318.2188,-69.82421875,-592.7734375,-428.22265625,-11.71875
0,1734037355322.125,-81.0546875,-1000,-719.23828125,4.8828125
1,1734037355326.0312,-70.80078125,-837.40234375,-461.42578125,-0.48828125
2,1734037355329.9375,-62.5,-60.546875,-30.2734375,0
3,1734037355333.8438,-85.9375,72.265625,-16.11328125,-2.44140625
4,1734037355337.75,-105.95703125,-63.96484375,-66.89453125,-16.6015625
5,1734037355341.6562,-76.66015625,19.04296875,22.94921875,7.32421875
6,1734037355345.5625,-48.828125,-49.31640625,16.6015625,32.2265625
7,1734037355349.4688,-56.15234375,-159.66796875,-51.7578125,27.34375
8,1734037355353.375,-86.9140625,27.83203125,2.9296875,3.41796875
9,1734037355357.2812,-71.77734375,390.13671875,127.9296875,5.859375
10,1734037355361.1875,-20.99609375,239.74609375,4.8828125,38.57421875
11,1734037355365.0938,-17.08984375,-283.69140625,-115.72265625,50.29296875
0,1734037355369,-39.55078125,-236.328125,-102.05078125,28.80859375
1,1734037355372.9062,-25.87890625,90.33203125,-15.13671875,11.71875
2,1734037355376.8125,11.71875,32.2265625,-62.98828125,27.34375
3,1734037355380.7188,24.4140625,-75.68359375,-138.671875,36.62109375
4,1734037355384.625,-5.859375,431.15234375,130.859375,20.01953125
5,1734037355388.5312,-15.625,87.40234375,-15.13671875,23.4375
6,1734037355392.4375,16.6015625,-338.8671875,-92.28515625,33.203125
7,1734037355396.3438,34.66796875,-149.90234375,4.39453125,24.90234375
8,1734037355400.25,19.04296875,209.9609375,79.1015625,8.7890625
9,1734037355404.1562,-9.27734375,396.484375,104.98046875,-18.5546875
10,1734037355408.0625,12.6953125,-280.2734375,-178.7109375,-12.6953125
11,1734037355411.9688,33.203125,-850.09765625,-361.328125,-4.8828125
0,1734037355415.875,-4.39453125,185.05859375,84.9609375,-44.921875
1,1734037355419.7812,-38.0859375,382.32421875,47.8515625,-71.2890625
2,1734037355423.6875,-19.04296875,-149.4140625,-90.8203125,-59.5703125
3,1734037355427.5938,10.25390625,111.328125,91.30859375,-57.12890625
4,1734037355431.5,13.671875,551.26953125,164.0625,-63.96484375
5,1734037355435.4062,-23.92578125,137.20703125,-71.77734375,-52.24609375
6,1734037355439.3125,-38.57421875,-853.02734375,-526.3671875,-36.62109375
7,1734037355443.2188,-15.13671875,-620.1171875,-295.8984375,-41.50390625
8,1734037355447.125,-10.7421875,584.9609375,261.71875,-44.921875
9,1734037355451.0312,-35.15625,325.68359375,-18.5546875,-34.1796875
10,1734037355454.9375,-44.43359375,-125.9765625,-146.97265625,-36.1328125
11,1734037355458.8438,2.9296875,387.20703125,140.13671875,-21.484375
0,1734037355462.75,19.04296875,719.23828125,210.44921875,-0.48828125
1,1734037355466.6562,-11.23046875,290.52734375,-3.90625,-6.34765625
2,1734037355470.5625,-37.59765625,-142.08984375,-135.25390625,-16.6015625
3,1734037355474.4688,-20.01953125,234.375,95.21484375,-7.32421875
4,1734037355478.375,-7.8125,539.0625,172.8515625,13.18359375
5,1734037355482.2812,-12.20703125,53.22265625,-29.78515625,31.25
6,1734037355486.1875,-38.0859375,-489.2578125,-278.80859375,30.2734375
7,1734037355490.0938,-51.7578125,-382.8125,-258.7890625,31.25
8,1734037355494,-20.5078125,-6.34765625,33.69140625,49.31640625
9,1734037355497.9062,-19.53125,-358.88671875,-163.0859375,61.5234375
10,1734037355501.8125,-53.22265625,-1000,-518.5546875,64.453125
11,1734037355505.7188,-50.29296875,-232.91015625,-30.2734375,47.8515625
0,1734037355509.625,-32.2265625,501.46484375,155.2734375,44.43359375
1,1734037355513.5312,-25.390625,281.73828125,65.91796875,50.78125
2,1734037355517.4375,-41.015625,251.46484375,80.56640625,48.33984375
3,1734037355521.3438,-76.66015625,382.32421875,77.63671875,32.71484375
4,1734037355525.25,-50.78125,341.30859375,69.3359375,26.85546875
5,1734037355529.1562,-5.859375,63.96484375,16.6015625,27.34375
6,1734037355533.0625,-18.5546875,30.2734375,31.25,2.44140625
7,1734037355536.9688,-38.57421875,60.546875,-2.9296875,-37.109375
8,1734037355540.875,12.6953125,-111.81640625,-49.8046875,-55.17578125
9,1734037355544.7812,58.10546875,-280.2734375,-80.56640625,-47.8515625
10,1734037355548.6875,60.05859375,255.859375,89.84375,-57.6171875
11,1734037355552.5938,53.22265625,584.9609375,145.5078125,-73.73046875
0,1734037355556.5,71.77734375,-3.90625,-110.83984375,-66.89453125
1,1734037355560.4062,119.140625,-21.484375,-84.47265625,-51.7578125
2,1734037355564.3125,134.765625,653.3203125,201.66015625,-48.828125
3,1734037355568.2188,100.5859375,650.390625,139.6484375,-60.05859375
4,1734037355572.125,95.21484375,-174.8046875,-156.25,-57.12890625
5,1734037355576.0312,123.046875,-449.70703125,-174.31640625,-50.78125
6,1734037355579.9375,115.72265625,136.23046875,92.28515625,-53.7109375
7,1734037355583.8438,83.0078125,37.109375,-2.44140625,-50.29296875
8,1734037355587.75,44.43359375,-455.078125,-202.1484375,-36.62109375
9,1734037355591.6562,52.24609375,-53.7109375,1.46484375,-15.13671875
10,1734037355595.5625,46.38671875,422.36328125,170.41015625,-9.27734375
11,1734037355599.4688,28.3203125,504.39453125,156.25,4.39453125
0,1734037355603.375,6.34765625,-229.00390625,-250,12.20703125
1,1734037355607.2812,-26.3671875,-1000,-524.90234375,13.671875
2,1734037355611.1875,-16.11328125,-19.04296875,56.640625,11.23046875
3,1734037355615.0938,-34.66796875,694.82421875,180.6640625,13.18359375
4,1734037355619,-78.61328125,169.43359375,-29.78515625,21.97265625
5,1734037355622.9062,-87.890625,-27.83203125,20.01953125,24.90234375
6,1734037355626.8125,-66.40625,175.29296875,112.79296875,34.1796875
7,1734037355630.7188,-56.15234375,225.5859375,59.08203125,57.6171875
8,1734037355634.625,-92.28515625,-458.49609375,-217.7734375,63.4765625
9,1734037355638.5312,-99.609375,-257.32421875,-67.87109375,52.24609375
10,1734037355642.4375,-67.87109375,639.6484375,216.30859375,63.96484375
11,1734037355646.3438,-48.828125,539.55078125,87.40234375,75.1953125
0,1734037355650.25,-62.98828125,58.59375,-83.49609375,68.359375
1,1734037355654.1562,-86.9140625,27.34375,-7.8125,54.6875
