index,unixTimestamp,TP9,AF7,AF8,TP10
0,1734117504679,0,0,0,0
1,1734117504682.9062,0,0,0,0
2,1734117504686.8125,-0.48828125,-1.953125,-0.9765625,-0.9765625
3,1734117504690.7188,0,3.41796875,0.9765625,0.9765625
4,1734117504694.625,-2.44140625,-20.5078125,-9.765625,-7.8125
5,1734117504698.5312,-17.08984375,-57.6171875,-40.52734375,-22.94921875
6,1734117504702.4375,-20.99609375,-51.7578125,-50.29296875,-19.04296875
7,1734117504706.3438,-20.99609375,-49.31640625,-44.43359375,-25.390625
8,1734117504710.25,-21.97265625,-54.19921875,-44.43359375,-35.15625
9,1734117504714.1562,-15.625,-53.7109375,-40.52734375,-23.92578125
10,1734117504718.0625,-22.94921875,-54.6875,-40.52734375,-23.4375
11,1734117504721.9688,-19.04296875,-54.19921875,-38.0859375,-22.94921875
0,1734117504725.875,-9.765625,-45.8984375,-32.2265625,-16.11328125
1,1734117504729.7812,-15.13671875,-47.8515625,-29.78515625,-13.671875
2,1734117504733.6875,-20.99609375,-53.7109375,-37.109375,-12.20703125
3,1734117504737.5938,-22.4609375,-45.8984375,-41.015625,-12.20703125
4,1734117504741.5,-18.06640625,-43.45703125,-40.52734375,-11.71875
5,1734117504745.4062,-22.94921875,-48.828125,-41.9921875,-14.16015625
6,1734117504749.3125,-24.4140625,-48.828125,-40.0390625,-14.6484375
7,1734117504753.2188,-31.73828125,-48.33984375,-48.33984375,-23.4375
8,1734117504757.125,-33.69140625,-52.734375,-51.26953125,-31.73828125
9,1734117504761.0312,-33.203125,-52.734375,-43.45703125,-26.3671875
10,1734117504764.9375,-48.828125,-56.15234375,-45.41015625,-22.4609375
11,1734117504768.8438,-46.38671875,-55.6640625,-46.875,-20.5078125
0,1734117504772.75,-36.62109375,-48.828125,-39.55078125,-16.6015625
1,1734117504776.6562,-28.80859375,-41.50390625,-38.57421875,-11.23046875
2,1734117504780.5625,-21.97265625,-41.9921875,-42.48046875,-9.765625
3,1734117504784.4688,-19.53125,-45.41015625,-40.52734375,-9.765625
4,1734117504788.375,-9.765625,-42.48046875,-40.0390625,-11.71875
5,1734117504792.2812,-1.46484375,-35.64453125,-41.015625,-9.27734375
6,1734117504796.1875,1.46484375,-41.015625,-34.66796875,-6.34765625
7,1734117504800.0938,6.8359375,-43.9453125,-33.203125,-10.7421875
8,1734117504804,5.37109375,-36.1328125,-35.64453125,-9.765625
9,1734117504807.9062,0,-36.1328125,-36.62109375,-1.46484375
10,1734117504811.8125,4.8828125,-34.1796875,-34.1796875,-0.48828125
11,1734117504815.7188,5.37109375,-29.78515625,-35.15625,-13.671875
0,1734117504819.625,4.8828125,-30.76171875,-36.62109375,0
1,1734117504823.5312,0,-33.69140625,-34.1796875,0.48828125
2,1734117504827.4375,-1.953125,-35.15625,-37.109375,-15.13671875
3,1734117504831.3438,-0.48828125,-38.57421875,-39.0625,-12.20703125
4,1734117504835.25,-16.11328125,-47.36328125,-33.69140625,-15.625
5,1734117504839.1562,-20.99609375,-51.26953125,-33.69140625,-21.97265625
6,1734117504843.0625,-18.06640625,-49.8046875,-34.1796875,-22.4609375
7,1734117504846.9688,-22.4609375,-50.29296875,-35.64453125,-22.4609375
8,1734117504850.875,-30.76171875,-52.734375,-39.55078125,-27.83203125
9,1734117504854.7812,-32.2265625,-43.45703125,-34.1796875,-29.78515625
10,1734117504858.6875,-23.4375,-39.55078125,-31.73828125,-24.4140625
11,1734117504862.5938,-28.3203125,-49.31640625,-34.66796875,-32.71484375
0,1734117504866.5,-28.80859375,-52.734375,-32.2265625,-37.109375
1,1734117504870.4062,-29.296875,-55.6640625,-27.34375,-33.203125
2,1734117504874.3125,-32.2265625,-56.640625,-28.3203125,-40.52734375
3,1734117504878.2188,-34.66796875,-56.15234375,-28.80859375,-41.9921875
4,1734117504882.125,-33.69140625,-53.22265625,-25.87890625,-37.59765625
5,1734117504886.0312,-28.3203125,-50.78125,-28.3203125,-40.0390625
6,1734117504889.9375,-30.76171875,-49.31640625,-29.78515625,-35.64453125
7,1734117504893.8438,-39.55078125,-48.828125,-24.90234375,-30.2734375
8,1734117504897.75,-40.0390625,-52.734375,-24.4140625,-20.01953125
9,1734117504901.6562,-25.87890625,-50.78125,-27.34375,3.90625
10,1734117504905.5625,-24.4140625,-53.7109375,-28.80859375,-4.8828125
11,1734117504909.4688,-24.90234375,-54.6875,-30.2734375,-17.08984375
0,1734117504913.375,-16.6015625,-48.828125,-31.73828125,-9.765625
1,1734117504917.2812,-4.39453125,-45.8984375,-28.3203125,-3.41796875
2,1734117504921.1875,2.9296875,-43.9453125,-20.5078125,2.9296875
3,1734117504925.0938,-5.859375,-49.8046875,-23.92578125,1.46484375
4,1734117504929,-9.765625,-52.734375,-25.390625,-5.37109375
5,1734117504932.9062,-7.32421875,-57.12890625,-27.34375,-9.27734375
6,1734117504936.8125,-0.9765625,-61.03515625,-35.64453125,-19.53125
7,1734117504940.7188,-1.46484375,-53.22265625,-39.0625,-24.4140625
8,1734117504944.625,-5.37109375,-51.26953125,-41.015625,-20.01953125
9,1734117504948.5312,0,-56.15234375,-41.015625,-27.34375
10,1734117504952.4375,-7.8125,-62.98828125,-41.50390625,-36.62109375
11,1734117504956.3438,-11.71875,-63.4765625,-38.0859375,-25.87890625
0,1734117504960.25,-12.20703125,-59.5703125,-34.66796875,-19.53125
1,1734117504964.1562,-17.578125,-56.640625,-33.203125,-25.87890625
2,1734117504968.0625,-21.484375,-55.17578125,-31.73828125,-25.87890625
3,1734117504971.9688,-36.1328125,-60.546875,-32.2265625,-28.80859375
4,1734117504975.875,-43.9453125,-62.01171875,-29.296875,-37.109375
5,1734117504979.7812,-42.48046875,-60.546875,-28.3203125,-39.0625
6,1734117504983.6875,-51.26953125,-63.4765625,-29.296875,-44.921875
7,1734117504987.5938,-61.5234375,-64.453125,-29.78515625,-46.875
8,1734117504991.5,-62.01171875,-61.5234375,-25.87890625,-36.62109375
9,1734117504995.4062,-60.546875,-66.40625,-26.3671875,-43.45703125
10,1734117504999.3125,-65.4296875,-71.2890625,-27.34375,-39.55078125
11,1734117505003.2188,-73.2421875,-69.3359375,-27.83203125,-22.4609375
0,1734117505007.125,-69.82421875,-70.3125,-34.66796875,-35.15625
1,1734117505011.0312,-56.640625,-69.3359375,-31.25,-39.55078125
2,1734117505014.9375,-44.43359375,-63.4765625,-26.3671875,-24.90234375
3,1734117505018.8438,-38.57421875,-62.01171875,-32.2265625,-24.90234375
4,1734117505022.75,-36.1328125,-62.01171875,-37.109375,-29.78515625
5,1734117505026.6562,-33.69140625,-62.01171875,-34.1796875,-30.2734375
6,1734117505030.5625,-28.3203125,-62.5,-29.296875,-27.83203125
7,1734117505034.4688,-22.94921875,-61.03515625,-27.34375,-20.5078125
8,1734117505038.375,-26.3671875,-57.12890625,-30.76171875,-23.4375
9,1734117505042.2812,-11.71875,-58.59375,-32.2265625,-21.97265625
10,1734117505046.1875,-6.8359375,-62.98828125,-24.4140625,-12.20703125
11,1734117505050.0938,-19.53125,-61.5234375,-20.99609375,-11.71875
0,1734117505054,-12.6953125,-60.546875,-33.69140625,-17.578125
1,1734117505057.9062,-8.7890625,-60.546875,-37.59765625,-14.6484375
2,1734117505061.8125,-21.484375,-62.01171875,-29.296875,-16.11328125
3,1734117505065.7188,-24.4140625,-59.08203125,-21.484375,-21.97265625
4,1734117505069.625,-21.484375,-57.6171875,-26.3671875,-23.4375
5,1734117505073.5312,-9.765625,-53.22265625,-27.83203125,-16.11328125
6,1734117505077.4375,-4.39453125,-51.26953125,-20.01953125,4.8828125
7,1734117505081.3438,-28.80859375,-54.19921875,-20.01953125,5.37109375
8,1734117505085.25,-30.2734375,-55.17578125,-25.390625,-9.765625
9,1734117505089.1562,-25.87890625,-58.59375,-26.3671875,-14.16015625
10,1734117505093.0625,-36.1328125,-58.10546875,-27.34375,-12.6953125
11,1734117505096.9688,-27.83203125,-56.15234375,-27.34375,-15.13671875
0,1734117505100.875,-22.4609375,-56.640625,-30.2734375,-18.5546875
1,1734117505104.7812,-23.4375,-55.17578125,-33.203125,-15.13671875
2,1734117505108.6875,-29.78515625,-57.12890625,-27.34375,-23.92578125
3,1734117505112.5938,-33.203125,-61.03515625,-25.390625,-24.4140625
4,1734117505116.5,-26.3671875,-58.59375,-24.4140625,-13.671875
5,1734117505120.4062,-28.3203125,-53.22265625,-22.4609375,-11.23046875
6,1734117505124.3125,-23.4375,-54.6875,-30.2734375,-3.41796875
7,1734117505128.2188,-19.04296875,-59.08203125,-34.1796875,-9.27734375
8,1734117505132.125,-16.6015625,-59.08203125,-31.73828125,-17.578125
9,1734117505136.0312,-12.6953125,-61.5234375,-33.203125,-0.48828125
10,1734117505139.9375,-8.7890625,-63.96484375,-36.1328125,7.8125
11,1734117505143.8438,-15.625,-62.5,-34.1796875,7.8125
0,1734117505147.75,-18.5546875,-64.94140625,-29.78515625,4.39453125
1,1734117505151.6562,-9.765625,-67.3828125,-26.85546875,5.859375
2,1734117505155.5625,-12.6953125,-63.4765625,-29.78515625,15.13671875
3,1734117505159.4688,-14.6484375,-58.10546875,-29.296875,18.06640625
4,1734117505163.375,-10.25390625,-52.24609375,-25.87890625,14.6484375
5,1734117505167.2812,-15.13671875,-57.12890625,-25.87890625,15.13671875
6,1734117505171.1875,-19.53125,-63.4765625,-24.90234375,6.34765625
7,1734117505175.0938,-18.06640625,-64.94140625,-24.90234375,-3.90625
8,1734117505179,-20.5078125,-67.3828125,-27.34375,-14.6484375
9,1734117505182.9062,-19.53125,-67.87109375,-21.484375,-9.27734375
10,1734117505186.8125,-27.34375,-67.87109375,-22.4609375,-9.27734375
11,1734117505190.7188,-30.2734375,-65.91796875,-26.3671875,-17.578125
0,1734117505194.625,-33.203125,-68.359375,-25.87890625,-15.625
1,1734117505198.5312,-34.66796875,-67.3828125,-26.3671875,-17.578125
2,1734117505202.4375,-31.73828125,-62.5,-27.34375,-13.18359375
3,1734117505206.3438,-25.87890625,-63.96484375,-33.203125,-20.99609375
4,1734117505210.25,-26.3671875,-67.3828125,-30.2734375,-25.87890625
5,1734117505214.1562,-37.59765625,-63.4765625,-23.92578125,-16.11328125
6,1734117505218.0625,-50.29296875,-65.91796875,-25.87890625,-17.578125
7,1734117505221.9688,-51.7578125,-75.1953125,-29.296875,-24.4140625
8,1734117505225.875,-44.43359375,-75.1953125,-26.85546875,-20.99609375
9,1734117505229.7812,-47.8515625,-68.84765625,-23.4375,-11.23046875
10,1734117505233.6875,-48.33984375,-68.84765625,-23.4375,-20.99609375
11,1734117505237.5938,-43.9453125,-72.265625,-23.92578125,-25.390625
0,1734117505241.5,-40.0390625,-67.87109375,-20.5078125,-7.32421875
1,1734117505245.4062,-35.15625,-68.359375,-22.4609375,-3.90625
2,1734117505249.3125,-29.296875,-69.3359375,-25.87890625,-16.11328125
3,1734117505253.2188,-22.94921875,-67.3828125,-25.87890625,-19.53125
4,1734117505257.125,-20.01953125,-65.4296875,-24.90234375,-8.30078125
5,1734117505261.0312,-19.53125,-64.453125,-25.87890625,-9.27734375
6,1734117505264.9375,-20.5078125,-62.01171875,-24.4140625,-15.625
7,1734117505268.8438,-18.06640625,-60.546875,-21.97265625,-13.671875
8,1734117505272.75,-9.765625,-61.5234375,-23.92578125,-10.25390625
9,1734117505276.6562,-1.46484375,-55.17578125,-20.99609375,5.37109375
10,1734117505280.5625,-7.32421875,-52.734375,-25.87890625,-7.32421875
11,1734117505284.4688,-5.37109375,-52.734375,-26.3671875,-15.13671875
0,1734117505288.375,-8.30078125,-53.22265625,-19.04296875,-5.37109375
1,1734117505292.2812,-20.01953125,-58.59375,-20.99609375,-14.16015625
2,1734117505296.1875,-22.4609375,-58.59375,-24.90234375,-23.4375
3,1734117505300.0938,-30.76171875,-62.01171875,-25.390625,-20.01953125
4,1734117505304,-34.1796875,-63.96484375,-23.92578125,-15.13671875
5,1734117505307.9062,-29.78515625,-61.03515625,-21.484375,-20.5078125
6,1734117505311.8125,-18.06640625,-60.05859375,-20.5078125,-21.484375
7,1734117505315.7188,-23.92578125,-60.546875,-22.4609375,-12.6953125
8,1734117505319.625,-38.0859375,-61.03515625,-20.01953125,-3.41796875
9,1734117505323.5312,-33.203125,-62.01171875,-23.92578125,-8.7890625
10,1734117505327.4375,-36.1328125,-69.3359375,-30.76171875,-18.5546875
11,1734117505331.3438,-42.48046875,-73.73046875,-27.83203125,-19.04296875
0,1734117505335.25,-36.1328125,-67.87109375,-26.85546875,-4.39453125
1,1734117505339.1562,-34.1796875,-70.3125,-28.80859375,-5.859375
2,1734117505343.0625,-38.0859375,-74.21875,-32.71484375,-19.04296875
3,1734117505346.9688,-38.57421875,-71.77734375,-32.71484375,-22.94921875
4,1734117505350.875,-34.66796875,-68.359375,-27.34375,-20.01953125
5,1734117505354.7812,-26.85546875,-63.4765625,-28.80859375,-16.11328125
6,1734117505358.6875,-23.92578125,-64.94140625,-31.25,-19.53125
7,1734117505362.5938,-27.34375,-62.98828125,-29.78515625,-10.7421875
8,1734117505366.5,-20.99609375,-57.6171875,-27.34375,-1.953125
9,1734117505370.4062,-18.5546875,-57.12890625,-31.73828125,-7.32421875
10,1734117505374.3125,-17.08984375,-55.6640625,-37.59765625,-9.765625
11,1734117505378.2188,-17.08984375,-51.26953125,-34.66796875,-13.18359375
0,1734117505382.125,-14.6484375,-50.78125,-30.2734375,-11.71875
1,1734117505386.0312,-6.8359375,-53.7109375,-27.34375,-12.20703125
2,1734117505389.9375,-14.16015625,-57.12890625,-29.296875,-12.6953125
3,1734117505393.8438,-26.3671875,-58.10546875,-31.25,-6.34765625
4,1734117505397.75,-20.99609375,-58.10546875,-29.296875,-9.27734375
5,1734117505401.6562,-24.4140625,-58.10546875,-33.203125,-15.625
6,1734117505405.5625,-22.4609375,-61.5234375,-35.15625,-13.671875
7,1734117505409.4688,-17.08984375,-62.5,-31.25,-7.8125
8,1734117505413.375,-16.11328125,-57.6171875,-30.2734375,-11.23046875
9,1734117505417.2812,-8.7890625,-55.6640625,-31.73828125,-8.30078125
10,1734117505421.1875,-17.578125,-64.94140625,-36.1328125,-14.16015625
11,1734117505425.0938,-17.08984375,-68.359375,-38.0859375,-22.94921875
0,1734117505429,-9.765625,-62.01171875,-36.1328125,-19.04296875
1,1734117505432.9062,-18.06640625,-58.10546875,-32.71484375,-12.20703125
2,1734117505436.8125,-23.92578125,-59.08203125,-30.76171875,-10.25390625
3,1734117505440.7188,-25.390625,-62.5,-34.1796875,-10.25390625
4,1734117505444.625,-19.04296875,-62.01171875,-30.2734375,-0.48828125
5,1734117505448.5312,-16.6015625,-62.5,-32.71484375,-1.46484375
6,1734117505452.4375,-27.83203125,-62.98828125,-34.1796875,-8.30078125
7,1734117505456.3438,-31.73828125,-57.6171875,-32.71484375,-10.7421875
8,1734117505460.25,-24.90234375,-53.22265625,-37.59765625,-20.99609375
9,1734117505464.1562,-26.3671875,-57.6171875,-33.69140625,-25.87890625
10,1734117505468.0625,-27.34375,-55.17578125,-27.83203125,-14.6484375
11,1734117505471.9688,-26.3671875,-53.22265625,-36.1328125,-17.578125
0,1734117505475.875,-23.92578125,-55.6640625,-40.0390625,-25.87890625
1,1734117505479.7812,-17.08984375,-55.17578125,-32.2265625,-14.6484375
2,1734117505483.6875,-17.578125,-54.6875,-28.80859375,-11.71875
3,1734117505487.5938,-12.6953125,-50.78125,-29.78515625,-12.20703125
4,1734117505491.5,-10.7421875,-51.26953125,-30.76171875,-15.625
5,1734117505495.4062,-14.16015625,-56.15234375,-26.3671875,-12.20703125
6,1734117505499.3125,-12.20703125,-62.01171875,-24.4140625,2.44140625
7,1734117505503.2188,-17.08984375,-63.96484375,-31.25,-9.765625
8,1734117505507.125,-20.99609375,-65.91796875,-35.64453125,-23.4375
9,1734117505511.0312,-18.5546875,-66.89453125,-33.69140625,-16.11328125
10,1734117505514.9375,-16.6015625,-60.546875,-35.64453125,-12.20703125
11,1734117505518.8438,-20.5078125,-58.10546875,-41.015625,-20.99609375
0,1734117505522.75,-24.90234375,-61.03515625,-40.0390625,-25.390625
1,1734117505526.6562,-14.16015625,-61.5234375,-35.15625,-28.80859375
2,1734117505530.5625,-16.6015625,-60.05859375,-30.2734375,-31.73828125
3,1734117505534.4688,-24.4140625,-58.59375,-32.71484375,-26.85546875
4,1734117505538.375,-20.99609375,-59.08203125,-34.1796875,-26.85546875
5,1734117505542.2812,-18.06640625,-59.5703125,-32.71484375,-19.53125
6,1734117505546.1875,-25.87890625,-63.96484375,-36.1328125,-21.97265625
7,1734117505550.0938,-23.4375,-63.4765625,-36.62109375,-34.1796875
8,1734117505554,-21.484375,-57.12890625,-43.9453125,-41.9921875
9,1734117505557.9062,-17.578125,-54.6875,-39.55078125,-29.78515625
10,1734117505561.8125,-5.859375,-53.7109375,-30.2734375,-19.04296875
11,1734117505565.7188,-21.97265625,-59.08203125,-39.0625,-31.25
0,1734117505569.625,-33.203125,-59.5703125,-40.52734375,-29.296875
1,1734117505573.5312,-28.80859375,-59.08203125,-35.64453125,-26.85546875
2,1734117505577.4375,-23.92578125,-58.10546875,-31.73828125,-25.390625
3,1734117505581.3438,-11.23046875,-52.734375,-33.69140625,-18.5546875
4,1734117505585.25,-10.7421875,-55.17578125,-29.78515625,0
5,1734117505589.1562,-9.27734375,-54.6875,-22.94921875,11.23046875
6,1734117505593.0625,-4.8828125,-52.734375,-26.3671875,-0.48828125
7,1734117505596.9688,-6.8359375,-53.7109375,-30.76171875,-8.30078125
8,1734117505600.875,-2.44140625,-50.29296875,-37.109375,-7.32421875
9,1734117505604.7812,2.44140625,-47.36328125,-35.15625,0.48828125
10,1734117505608.6875,-2.44140625,-49.8046875,-32.2265625,-4.39453125
11,1734117505612.5938,0,-53.7109375,-33.203125,-12.6953125
0,1734117505616.5,-6.34765625,-55.17578125,-33.203125,-3.41796875
1,1734117505620.4062,-8.30078125,-54.19921875,-34.1796875,1.46484375
2,1734117505624.3125,-6.34765625,-53.7109375,-39.0625,-0.48828125
3,1734117505628.2188,-4.8828125,-49.8046875,-37.59765625,11.23046875
4,1734117505632.125,-2.44140625,-49.31640625,-32.2265625,17.578125
5,1734117505636.0312,-3.90625,-55.17578125,-32.71484375,6.8359375
6,1734117505639.9375,-6.8359375,-57.12890625,-36.1328125,1.46484375
7,1734117505643.8438,-9.27734375,-59.08203125,-41.015625,-0.9765625
8,1734117505647.75,-7.8125,-60.05859375,-34.1796875,5.37109375
9,1734117505651.6562,-16.11328125,-60.05859375,-25.87890625,9.27734375
10,1734117505655.5625,-24.4140625,-58.10546875,-31.73828125,-3.90625
11,1734117505659.4688,-20.99609375,-57.12890625,-37.59765625,-11.71875
0,1734117505663.375,-16.6015625,-61.03515625,-32.2265625,-1.46484375
1,1734117505667.2812,-20.5078125,-57.12890625,-32.2265625,5.859375
2,1734117505671.1875,-24.4140625,-58.59375,-36.1328125,-1.953125
3,1734117505675.0938,-19.04296875,-63.4765625,-34.1796875,7.32421875
4,1734117505679,-18.06640625,-56.15234375,-28.80859375,11.23046875
5,1734117505682.9062,-16.11328125,-59.08203125,-30.76171875,7.32421875
6,1734117505686.8125,-6.34765625,-64.94140625,-30.2734375,10.7421875
7,1734117505690.7188,-14.6484375,-59.08203125,-28.3203125,10.7421875
8,1734117505694.625,-3.41796875,-59.5703125,-33.203125,15.13671875
9,1734117505698.5312,0,-64.453125,-39.55078125,1.953125
10,1734117505702.4375,-12.20703125,-65.91796875,-41.9921875,3.41796875
11,1734117505706.3438,3.90625,-62.01171875,-39.55078125,16.6015625
0,1734117505710.25,11.23046875,-55.6640625,-33.69140625,14.16015625
1,1734117505714.1562,12.20703125,-52.24609375,-34.66796875,7.8125
2,1734117505718.0625,19.53125,-54.19921875,-36.62109375,1.953125
3,1734117505721.9688,28.3203125,-53.22265625,-31.73828125,2.9296875
4,1734117505725.875,27.83203125,-56.15234375,-32.71484375,4.8828125
5,1734117505729.7812,16.11328125,-54.6875,-34.66796875,3.90625
6,1734117505733.6875,2.44140625,-56.640625,-39.0625,-0.48828125
7,1734117505737.5938,-3.90625,-62.5,-38.0859375,13.671875
8,1734117505741.5,3.90625,-55.6640625,-33.69140625,25.87890625
9,1734117505745.4062,-7.8125,-58.10546875,-34.1796875,11.71875
10,1734117505749.3125,-23.92578125,-63.96484375,-31.73828125,16.11328125
11,1734117505753.2188,-17.08984375,-60.05859375,-34.1796875,23.4375
0,1734117505757.125,-19.04296875,-66.40625,-42.96875,9.765625
1,1734117505761.0312,-24.90234375,-70.80078125,-41.9921875,-2.9296875
2,1734117505764.9375,-13.671875,-64.453125,-37.109375,0.9765625
3,1734117505768.8438,-13.671875,-56.15234375,-35.15625,5.859375
4,1734117505772.75,-18.06640625,-59.08203125,-37.59765625,2.9296875
5,1734117505776.6562,-13.671875,-60.05859375,-37.59765625,2.9296875
6,1734117505780.5625,-11.23046875,-54.6875,-33.69140625,7.32421875
7,1734117505784.4688,-12.20703125,-58.10546875,-32.71484375,17.08984375
8,1734117505788.375,-7.8125,-60.05859375,-33.203125,12.6953125
9,1734117505792.2812,-10.25390625,-60.546875,-37.109375,-6.34765625
10,1734117505796.1875,-23.4375,-65.4296875,-35.64453125,-6.8359375
11,1734117505800.0938,-19.04296875,-64.94140625,-33.69140625,-5.859375
0,1734117505804,-14.16015625,-58.10546875,-34.66796875,-8.7890625
1,1734117505807.9062,-4.8828125,-51.26953125,-29.296875,-1.953125
2,1734117505811.8125,0.48828125,-53.22265625,-30.2734375,4.39453125
3,1734117505815.7188,-10.7421875,-61.03515625,-35.15625,5.37109375
4,1734117505819.625,-2.44140625,-61.5234375,-32.71484375,4.39453125
5,1734117505823.5312,1.953125,-60.05859375,-34.66796875,1.953125
6,1734117505827.4375,0.9765625,-56.640625,-30.2734375,19.04296875
7,1734117505831.3438,7.8125,-54.6875,-26.3671875,21.97265625
8,1734117505835.25,2.9296875,-59.08203125,-27.34375,6.8359375
9,1734117505839.1562,-3.90625,-57.6171875,-31.73828125,0
10,1734117505843.0625,2.44140625,-55.6640625,-36.1328125,6.34765625
11,1734117505846.9688,9.27734375,-53.22265625,-29.78515625,11.23046875
0,1734117505850.875,0.9765625,-49.8046875,-30.2734375,5.859375
1,1734117505854.7812,1.46484375,-57.12890625,-34.66796875,5.859375
2,1734117505858.6875,3.41796875,-60.546875,-35.15625,3.90625
3,1734117505862.5938,-5.37109375,-57.6171875,-36.62109375,2.44140625
4,1734117505866.5,-0.9765625,-58.10546875,-36.62109375,2.9296875
5,1734117505870.4062,4.39453125,-57.12890625,-33.69140625,2.9296875
6,1734117505874.3125,-9.765625,-62.01171875,-33.203125,2.44140625
7,1734117505878.2188,-14.16015625,-64.94140625,-35.15625,-10.7421875
8,1734117505882.125,-14.6484375,-56.15234375,-32.2265625,-11.71875
9,1734117505886.0312,-6.34765625,-57.12890625,-35.15625,-8.7890625
10,1734117505889.9375,-6.8359375,-62.5,-38.57421875,-15.625
11,1734117505893.8438,-15.13671875,-59.08203125,-33.203125,-14.16015625
0,1734117505897.75,-3.90625,-51.7578125,-28.3203125,-3.41796875
1,1734117505901.6562,-3.90625,-54.19921875,-29.296875,-5.37109375
2,1734117505905.5625,-12.20703125,-55.6640625,-33.69140625,-14.16015625
3,1734117505909.4688,0,-50.78125,-32.2265625,-9.27734375
4,1734117505913.375,2.9296875,-49.31640625,-25.87890625,1.953125
5,1734117505917.2812,-1.46484375,-52.24609375,-24.90234375,5.37109375
6,1734117505921.1875,6.8359375,-55.17578125,-30.2734375,2.9296875
7,1734117505925.0938,12.6953125,-51.7578125,-34.1796875,10.7421875
8,1734117505929,11.23046875,-50.78125,-37.109375,13.18359375
9,1734117505932.9062,13.18359375,-53.22265625,-35.15625,14.16015625
10,1734117505936.8125,16.11328125,-52.24609375,-31.25,19.04296875
11,1734117505940.7188,14.6484375,-49.31640625,-31.73828125,13.18359375
0,1734117505944.625,18.06640625,-48.33984375,-33.203125,16.6015625
1,1734117505948.5312,23.92578125,-49.8046875,-32.2265625,17.08984375
2,1734117505952.4375,13.18359375,-48.33984375,-28.3203125,14.16015625
3,1734117505956.3438,11.23046875,-46.875,-32.2265625,10.25390625
4,1734117505960.25,16.11328125,-46.875,-33.69140625,10.25390625
5,1734117505964.1562,6.8359375,-46.875,-35.15625,14.6484375
6,1734117505968.0625,5.37109375,-45.41015625,-39.0625,0.9765625
7,1734117505971.9688,9.765625,-46.875,-41.50390625,-5.859375
8,1734117505975.875,4.8828125,-51.7578125,-44.921875,-4.8828125
9,1734117505979.7812,0.48828125,-50.29296875,-41.015625,-7.8125
10,1734117505983.6875,-3.41796875,-55.17578125,-39.55078125,-13.18359375
11,1734117505987.5938,-11.23046875,-65.4296875,-41.9921875,-16.11328125
0,1734117505991.5,-18.06640625,-69.82421875,-41.9921875,-13.671875
1,1734117505995.4062,-19.04296875,-64.94140625,-42.96875,-11.23046875
2,1734117505999.3125,-20.5078125,-62.98828125,-43.45703125,-11.23046875
3,1734117506003.2188,-17.578125,-62.01171875,-40.0390625,-16.6015625
4,1734117506007.125,-11.71875,-58.10546875,-36.62109375,-7.32421875
5,1734117506011.0312,-14.6484375,-62.01171875,-37.109375,-3.41796875
6,1734117506014.9375,-12.6953125,-63.96484375,-36.62109375,-13.671875
7,1734117506018.8438,-15.13671875,-61.03515625,-31.25,-12.6953125
8,1734117506022.75,-19.53125,-59.5703125,-30.76171875,-1.46484375
9,1734117506026.6562,-16.6015625,-60.546875,-34.66796875,4.8828125
10,1734117506030.5625,-19.53125,-60.05859375,-37.109375,-1.953125
11,1734117506034.4688,-11.71875,-60.05859375,-29.78515625,2.9296875
0,1734117506038.375,-0.48828125,-60.546875,-27.34375,0.9765625
1,1734117506042.2812,2.44140625,-57.12890625,-30.2734375,-0.48828125
2,1734117506046.1875,-1.46484375,-54.6875,-29.78515625,11.23046875
3,1734117506050.0938,-2.9296875,-54.19921875,-28.3203125,13.671875
4,1734117506054,3.90625,-54.19921875,-29.78515625,6.8359375
5,1734117506057.9062,-8.30078125,-59.08203125,-33.203125,0.48828125
6,1734117506061.8125,-16.6015625,-59.08203125,-31.73828125,-11.23046875
7,1734117506065.7188,-16.6015625,-61.5234375,-37.109375,-21.484375
8,1734117506069.625,-24.4140625,-60.05859375,-38.0859375,-16.11328125
9,1734117506073.5312,-23.92578125,-59.08203125,-38.57421875,-23.4375
10,1734117506077.4375,-18.06640625,-64.453125,-39.0625,-26.85546875
11,1734117506081.3438,-20.5078125,-62.01171875,-27.34375,-17.08984375
0,1734117506085.25,-21.97265625,-57.6171875,-23.92578125,-18.5546875
1,1734117506089.1562,-20.99609375,-64.453125,-30.2734375,-25.87890625
2,1734117506093.0625,-17.578125,-70.3125,-30.76171875,-28.80859375
3,1734117506096.9688,-17.578125,-68.84765625,-33.69140625,-26.3671875
4,1734117506100.875,-24.4140625,-68.359375,-42.96875,-20.99609375
5,1734117506104.7812,-24.4140625,-72.75390625,-38.0859375,-9.765625
6,1734117506108.6875,-17.578125,-74.21875,-32.2265625,5.859375
7,1734117506112.5938,-23.4375,-66.89453125,-26.3671875,8.7890625
8,1734117506116.5,-34.66796875,-62.01171875,-25.87890625,1.953125
9,1734117506120.4062,-36.1328125,-61.5234375,-35.15625,-12.20703125
10,1734117506124.3125,-32.71484375,-63.4765625,-31.73828125,-20.01953125
11,1734117506128.2188,-29.296875,-61.5234375,-31.25,-16.6015625
0,1734117506132.125,-20.01953125,-54.6875,-33.203125,-13.671875
1,1734117506136.0312,-11.71875,-54.19921875,-34.66796875,-8.30078125
2,1734117506139.9375,-9.765625,-56.640625,-39.55078125,-3.90625
3,1734117506143.8438,-4.39453125,-52.734375,-37.59765625,-5.859375
4,1734117506147.75,-6.34765625,-51.26953125,-40.0390625,-6.8359375
5,1734117506151.6562,-6.8359375,-51.26953125,-39.55078125,-15.13671875
6,1734117506155.5625,-10.7421875,-49.8046875,-34.66796875,-12.20703125
7,1734117506159.4688,-21.97265625,-57.6171875,-37.109375,-6.34765625
8,1734117506163.375,-21.484375,-59.08203125,-36.62109375,-27.34375
9,1734117506167.2812,-21.97265625,-57.6171875,-34.66796875,-33.69140625
10,1734117506171.1875,-24.4140625,-64.94140625,-39.0625,-30.2734375
11,1734117506175.0938,-19.53125,-59.5703125,-39.0625,-24.90234375
0,1734117506179,-29.78515625,-56.640625,-37.59765625,-18.5546875
1,1734117506182.9062,-26.85546875,-55.17578125,-36.1328125,-18.06640625
2,1734117506186.8125,-22.94921875,-51.7578125,-34.66796875,-16.11328125
3,1734117506190.7188,-29.296875,-57.6171875,-35.64453125,-14.16015625
4,1734117506194.625,-23.4375,-66.40625,-32.2265625,-11.23046875
5,1734117506198.5312,-11.71875,-59.08203125,-29.296875,-5.37109375
6,1734117506202.4375,2.44140625,-51.26953125,-27.34375,10.25390625
7,1734117506206.3438,-2.44140625,-56.15234375,-35.64453125,12.6953125
8,1734117506210.25,-7.8125,-56.15234375,-45.8984375,0.48828125
9,1734117506214.1562,-5.859375,-52.24609375,-41.9921875,1.953125
10,1734117506218.0625,-27.34375,-57.6171875,-34.66796875,9.765625
11,1734117506221.9688,-28.80859375,-65.91796875,-30.76171875,10.7421875
0,1734117506225.875,-21.484375,-67.3828125,-31.25,0.48828125
1,1734117506229.7812,-20.01953125,-66.89453125,-33.203125,-3.41796875
2,1734117506233.6875,-20.01953125,-62.01171875,-31.25,1.46484375
3,1734117506237.5938,-16.6015625,-60.546875,-33.69140625,0
4,1734117506241.5,-9.765625,-59.5703125,-34.1796875,-5.37109375
5,1734117506245.4062,-22.4609375,-61.5234375,-33.69140625,-4.39453125
6,1734117506249.3125,-25.390625,-61.5234375,-36.1328125,4.8828125
7,1734117506253.2188,-22.4609375,-62.01171875,-39.0625,3.90625
8,1734117506257.125,-16.6015625,-61.5234375,-41.50390625,-8.7890625
9,1734117506261.0312,-7.8125,-58.10546875,-37.59765625,-11.71875
10,1734117506264.9375,-12.6953125,-58.59375,-41.50390625,-12.6953125
11,1734117506268.8438,-11.71875,-53.7109375,-41.015625,-5.859375
0,1734117506272.75,-14.6484375,-56.640625,-37.59765625,-13.671875
1,1734117506276.6562,-27.83203125,-59.5703125,-37.59765625,-11.71875
2,1734117506280.5625,-31.25,-62.5,-34.1796875,-9.765625
3,1734117506284.4688,-29.296875,-62.5,-33.69140625,-18.5546875
4,1734117506288.375,-23.92578125,-63.96484375,-32.2265625,-9.27734375
5,1734117506292.2812,-23.4375,-65.91796875,-31.25,0.48828125
6,1734117506296.1875,-22.94921875,-69.82421875,-33.69140625,-0.48828125
7,1734117506300.0938,-14.16015625,-71.77734375,-37.59765625,-6.34765625
8,1734117506304,-9.27734375,-63.96484375,-38.57421875,7.32421875
9,1734117506307.9062,-8.7890625,-58.59375,-33.203125,21.97265625
10,1734117506311.8125,-6.34765625,-56.15234375,-32.71484375,15.13671875
11,1734117506315.7188,-3.41796875,-56.640625,-35.15625,5.37109375
0,1734117506319.625,-7.32421875,-54.19921875,-30.76171875,2.9296875
1,1734117506323.5312,-7.32421875,-56.640625,-30.76171875,-0.9765625
2,1734117506327.4375,-0.48828125,-58.59375,-35.64453125,3.41796875
3,1734117506331.3438,-14.6484375,-57.6171875,-32.2265625,-2.44140625
4,1734117506335.25,-28.80859375,-62.5,-29.78515625,-13.18359375
5,1734117506339.1562,-23.92578125,-62.5,-30.76171875,-9.765625
6,1734117506343.0625,-21.97265625,-60.546875,-31.25,-10.7421875
7,1734117506346.9688,-23.4375,-63.96484375,-33.69140625,-17.578125
8,1734117506350.875,-30.76171875,-62.98828125,-32.2265625,-19.53125
9,1734117506354.7812,-33.69140625,-62.01171875,-38.0859375,-22.94921875
10,1734117506358.6875,-31.25,-67.3828125,-45.8984375,-21.97265625
11,1734117506362.5938,-27.83203125,-67.87109375,-42.48046875,-21.97265625
0,1734117506366.5,-29.296875,-62.98828125,-39.55078125,-20.5078125
1,1734117506370.4062,-27.83203125,-60.546875,-41.015625,-11.71875
2,1734117506374.3125,-25.87890625,-64.453125,-45.8984375,-13.18359375
3,1734117506378.2188,-24.4140625,-63.96484375,-45.41015625,-13.18359375
4,1734117506382.125,-20.99609375,-59.5703125,-37.109375,-8.30078125
5,1734117506386.0312,-17.08984375,-63.4765625,-41.50390625,-9.765625
6,1734117506389.9375,-16.11328125,-68.84765625,-40.0390625,-11.71875
7,1734117506393.8438,-13.671875,-70.3125,-35.15625,-10.25390625
8,1734117506397.75,6.8359375,-60.05859375,-30.2734375,0
9,1734117506401.6562,6.34765625,-50.78125,-21.97265625,14.16015625
10,1734117506405.5625,-16.11328125,-58.59375,-31.73828125,5.37109375
11,1734117506409.4688,-15.13671875,-60.05859375,-35.15625,0
0,1734117506413.375,-15.625,-57.6171875,-31.25,7.8125
1,1734117506417.2812,-15.625,-60.05859375,-32.2265625,0.9765625
2,1734117506421.1875,-4.8828125,-59.08203125,-35.64453125,-1.953125
3,1734117506425.0938,9.765625,-54.6875,-32.71484375,5.859375
4,1734117506429,7.32421875,-46.875,-25.87890625,12.6953125
5,1734117506432.9062,2.44140625,-48.828125,-29.296875,14.16015625
6,1734117506436.8125,11.71875,-53.7109375,-32.2265625,2.9296875
7,1734117506440.7188,1.953125,-54.19921875,-30.76171875,-3.41796875
8,1734117506444.625,-16.6015625,-59.5703125,-33.203125,-7.8125
9,1734117506448.5312,-20.99609375,-62.98828125,-38.57421875,-16.11328125
10,1734117506452.4375,-14.16015625,-60.546875,-32.2265625,-15.625
11,1734117506456.3438,-11.71875,-62.98828125,-26.85546875,-13.671875
0,1734117506460.25,-22.94921875,-63.4765625,-31.73828125,-19.04296875
1,1734117506464.1562,-23.4375,-58.59375,-32.71484375,-24.4140625
2,1734117506468.0625,-13.671875,-55.6640625,-31.25,-28.3203125
3,1734117506471.9688,-17.578125,-59.5703125,-27.83203125,-32.2265625
4,1734117506475.875,-31.73828125,-66.89453125,-28.3203125,-36.1328125
5,1734117506479.7812,-28.3203125,-63.96484375,-30.76171875,-31.25
6,1734117506483.6875,-20.01953125,-61.03515625,-32.71484375,-26.85546875
7,1734117506487.5938,-21.484375,-60.546875,-32.2265625,-20.5078125
8,1734117506491.5,-7.8125,-60.05859375,-29.78515625,-5.37109375
9,1734117506495.4062,-14.6484375,-63.96484375,-35.64453125,-16.6015625
10,1734117506499.3125,-32.71484375,-62.98828125,-34.66796875,-24.90234375
11,1734117506503.2188,-24.90234375,-61.03515625,-31.73828125,-14.16015625
0,1734117506507.125,-17.578125,-63.4765625,-37.59765625,-16.11328125
1,1734117506511.0312,-16.6015625,-64.94140625,-43.45703125,-22.94921875
2,1734117506514.9375,-18.5546875,-65.4296875,-41.015625,-21.97265625
3,1734117506518.8438,-16.11328125,-63.4765625,-36.1328125,-20.01953125
4,1734117506522.75,-15.13671875,-62.5,-32.71484375,-15.625
5,1734117506526.6562,-13.671875,-62.5,-31.25,-15.13671875
6,1734117506530.5625,-14.16015625,-62.5,-34.1796875,-20.99609375
7,1734117506534.4688,-5.37109375,-61.5234375,-35.15625,-15.13671875
8,1734117506538.375,1.46484375,-60.05859375,-36.62109375,-7.8125
9,1734117506542.2812,-6.8359375,-58.10546875,-39.0625,-12.20703125
10,1734117506546.1875,-10.25390625,-54.6875,-34.1796875,-9.765625
11,1734117506550.0938,-13.18359375,-56.640625,-30.2734375,-10.25390625
0,1734117506554,-18.06640625,-52.734375,-29.78515625,-12.20703125
1,1734117506557.9062,-20.01953125,-47.36328125,-33.69140625,-8.7890625
2,1734117506561.8125,-13.18359375,-54.6875,-37.59765625,-7.8125
3,1734117506565.7188,-24.90234375,-60.546875,-39.0625,-16.11328125
4,1734117506569.625,-34.66796875,-60.546875,-40.52734375,-25.390625
5,1734117506573.5312,-20.01953125,-66.40625,-42.48046875,-25.390625
6,1734117506577.4375,-10.7421875,-63.4765625,-37.59765625,-10.25390625
7,1734117506581.3438,-11.71875,-58.10546875,-32.71484375,-10.25390625
8,1734117506585.25,-6.34765625,-59.08203125,-34.1796875,-31.25
9,1734117506589.1562,4.39453125,-54.6875,-34.1796875,-33.69140625
10,1734117506593.0625,12.6953125,-51.26953125,-32.2265625,-21.484375
11,1734117506596.9688,7.8125,-51.7578125,-31.25,-11.71875
0,1734117506600.875,-13.671875,-56.15234375,-35.15625,-12.6953125
1,1734117506604.7812,-27.83203125,-56.15234375,-33.203125,-14.16015625
2,1734117506608.6875,-34.66796875,-53.7109375,-33.203125,-17.578125
3,1734117506612.5938,-35.64453125,-60.05859375,-36.62109375,-15.13671875
4,1734117506616.5,-29.296875,-57.6171875,-28.3203125,-6.34765625
5,1734117506620.4062,-17.08984375,-52.24609375,-24.4140625,-11.71875
6,1734117506624.3125,-10.7421875,-53.22265625,-26.3671875,-8.7890625
7,1734117506628.2188,-9.765625,-54.19921875,-31.25,-5.859375
8,1734117506632.125,-18.5546875,-56.15234375,-36.1328125,-6.8359375
9,1734117506636.0312,-17.08984375,-55.6640625,-33.69140625,-1.953125
10,1734117506639.9375,-13.671875,-58.10546875,-39.55078125,-6.8359375
11,1734117506643.8438,-14.6484375,-60.05859375,-35.15625,4.8828125
0,1734117506647.75,-21.97265625,-60.05859375,-22.4609375,-0.48828125
1,1734117506651.6562,-35.64453125,-62.5,-23.92578125,-17.578125
2,1734117506655.5625,-24.90234375,-60.05859375,-29.296875,-13.18359375
3,1734117506659.4688,-26.3671875,-57.12890625,-28.80859375,-12.20703125
4,1734117506663.375,-36.1328125,-64.453125,-28.80859375,-20.5078125
5,1734117506667.2812,-34.1796875,-66.40625,-26.3671875,-15.625
6,1734117506671.1875,-32.2265625,-59.5703125,-25.390625,-11.71875
7,1734117506675.0938,-32.71484375,-60.546875,-30.76171875,-23.4375
8,1734117506679,-35.15625,-61.5234375,-31.25,-21.484375
9,1734117506682.9062,-32.71484375,-64.453125,-32.2265625,-12.20703125
10,1734117506686.8125,-26.85546875,-66.40625,-29.78515625,-8.7890625
11,1734117506690.7188,-22.4609375,-64.453125,-32.71484375,-15.625
0,1734117506694.625,-20.5078125,-62.01171875,-32.71484375,-22.4609375
1,1734117506698.5312,-18.5546875,-58.59375,-28.3203125,-20.99609375
2,1734117506702.4375,-17.08984375,-59.5703125,-27.83203125,-13.671875
3,1734117506706.3438,-22.4609375,-62.98828125,-32.71484375,-14.6484375
4,1734117506710.25,-12.20703125,-62.01171875,-35.64453125,-14.16015625
5,1734117506714.1562,1.46484375,-54.6875,-26.85546875,-7.32421875
6,1734117506718.0625,-8.7890625,-52.734375,-26.85546875,-3.90625
7,1734117506721.9688,-14.6484375,-55.6640625,-36.62109375,-10.7421875
8,1734117506725.875,-6.8359375,-56.640625,-35.15625,-7.8125
9,1734117506729.7812,-11.71875,-58.59375,-30.76171875,5.37109375
10,1734117506733.6875,-13.671875,-61.03515625,-33.203125,-4.8828125
11,1734117506737.5938,-5.37109375,-58.59375,-32.2265625,-6.8359375
0,1734117506741.5,-10.7421875,-57.6171875,-31.73828125,-0.9765625
1,1734117506745.4062,-21.97265625,-63.4765625,-35.64453125,-11.71875
2,1734117506749.3125,-21.97265625,-63.96484375,-36.62109375,-14.6484375
3,1734117506753.2188,-16.11328125,-60.546875,-33.203125,-15.625
4,1734117506757.125,-16.6015625,-61.5234375,-29.296875,-12.6953125
5,1734117506761.0312,-18.5546875,-56.640625,-31.73828125,-15.625
6,1734117506764.9375,-16.11328125,-55.6640625,-29.296875,-20.99609375
7,1734117506768.8438,-23.4375,-64.94140625,-29.296875,-23.92578125
8,1734117506772.75,-32.2265625,-66.40625,-31.73828125,-17.08984375
9,1734117506776.6562,-29.78515625,-63.96484375,-32.2265625,-3.41796875
10,1734117506780.5625,-23.4375,-60.05859375,-32.71484375,-8.7890625
11,1734117506784.4688,-29.296875,-59.5703125,-30.76171875,-15.13671875
0,1734117506788.375,-23.92578125,-53.7109375,-25.87890625,-4.39453125
1,1734117506792.2812,-16.11328125,-52.24609375,-29.296875,-5.37109375
2,1734117506796.1875,-17.578125,-54.19921875,-34.66796875,-15.13671875
3,1734117506800.0938,-7.32421875,-53.22265625,-31.73828125,-0.48828125
4,1734117506804,0.9765625,-53.22265625,-31.25,1.953125
5,1734117506807.9062,-2.44140625,-51.26953125,-31.25,-8.7890625
6,1734117506811.8125,-6.8359375,-48.33984375,-30.76171875,0
7,1734117506815.7188,-3.90625,-49.8046875,-31.25,5.37109375
8,1734117506819.625,0,-50.78125,-24.90234375,6.34765625
9,1734117506823.5312,-12.20703125,-51.26953125,-23.92578125,-0.48828125
10,1734117506827.4375,-17.08984375,-56.640625,-36.1328125,-7.32421875
11,1734117506831.3438,-13.671875,-58.10546875,-39.0625,-1.953125
0,1734117506835.25,-13.18359375,-49.31640625,-32.71484375,-0.9765625
1,1734117506839.1562,-20.01953125,-50.29296875,-30.2734375,1.46484375
2,1734117506843.0625,-24.90234375,-57.12890625,-27.83203125,-3.90625
3,1734117506846.9688,-23.92578125,-60.05859375,-28.80859375,-1.953125
4,1734117506850.875,-19.04296875,-58.59375,-25.87890625,6.34765625
5,1734117506854.7812,-16.11328125,-56.640625,-27.83203125,0.9765625
6,1734117506858.6875,-25.390625,-61.03515625,-32.2265625,-7.32421875
7,1734117506862.5938,-38.57421875,-60.05859375,-26.3671875,-7.8125
8,1734117506866.5,-41.50390625,-62.01171875,-27.34375,-7.8125
9,1734117506870.4062,-48.33984375,-60.546875,-33.69140625,-24.90234375
10,1734117506874.3125,-41.9921875,-57.6171875,-33.69140625,-38.57421875
11,1734117506878.2188,-36.1328125,-56.640625,-35.64453125,-35.15625
0,1734117506882.125,-42.48046875,-51.7578125,-37.109375,-32.71484375
1,1734117506886.0312,-37.109375,-53.22265625,-36.62109375,-34.1796875
2,1734117506889.9375,-30.2734375,-57.12890625,-39.55078125,-32.71484375
3,1734117506893.8438,-29.78515625,-56.15234375,-40.52734375,-20.01953125
4,1734117506897.75,-17.08984375,-56.640625,-33.203125,-4.8828125
5,1734117506901.6562,-14.16015625,-58.10546875,-34.1796875,-5.859375
6,1734117506905.5625,-23.4375,-52.734375,-35.64453125,-7.8125
7,1734117506909.4688,-12.6953125,-55.6640625,-30.2734375,2.44140625
8,1734117506913.375,-8.7890625,-61.5234375,-33.203125,6.34765625
9,1734117506917.2812,-11.71875,-58.10546875,-34.1796875,-3.41796875
10,1734117506921.1875,-2.9296875,-57.12890625,-31.73828125,-0.9765625
11,1734117506925.0938,1.953125,-59.5703125,-34.1796875,-5.859375
0,1734117506929,-5.859375,-57.6171875,-31.25,-9.765625
1,1734117506932.9062,-19.04296875,-59.08203125,-29.78515625,-9.765625
2,1734117506936.8125,-18.06640625,-61.03515625,-33.69140625,-17.578125
3,1734117506940.7188,-10.7421875,-65.4296875,-38.0859375,-24.4140625
4,1734117506944.625,-23.92578125,-69.3359375,-37.59765625,-38.0859375
5,1734117506948.5312,-30.76171875,-64.453125,-29.296875,-40.52734375
6,1734117506952.4375,-26.3671875,-61.5234375,-22.94921875,-35.64453125
7,1734117506956.3438,-27.83203125,-62.5,-24.4140625,-44.43359375
8,1734117506960.25,-29.296875,-65.91796875,-29.78515625,-65.4296875
9,1734117506964.1562,-39.0625,-68.84765625,-34.1796875,-70.3125
10,1734117506968.0625,-50.29296875,-67.87109375,-31.73828125,-59.08203125
11,1734117506971.9688,-44.921875,-65.4296875,-32.2265625,-58.10546875
0,1734117506975.875,-31.73828125,-65.4296875,-41.015625,-67.3828125
1,1734117506979.7812,-26.85546875,-70.3125,-38.57421875,-68.84765625
2,1734117506983.6875,-25.390625,-65.91796875,-34.1796875,-65.4296875
3,1734117506987.5938,-20.99609375,-62.98828125,-41.015625,-69.82421875
4,1734117506991.5,-10.7421875,-62.01171875,-41.015625,-77.1484375
5,1734117506995.4062,-5.859375,-52.734375,-35.64453125,-65.91796875
6,1734117506999.3125,-11.71875,-48.828125,-31.73828125,-53.7109375
7,1734117507003.2188,-6.34765625,-56.15234375,-33.203125,-61.03515625
8,1734117507007.125,-7.8125,-57.12890625,-30.76171875,-60.546875
9,1734117507011.0312,-17.578125,-49.31640625,-28.80859375,-48.828125
10,1734117507014.9375,-6.8359375,-45.41015625,-38.57421875,-51.7578125
11,1734117507018.8438,-7.8125,-51.7578125,-43.45703125,-55.17578125
0,1734117507022.75,-18.5546875,-59.5703125,-35.15625,-54.6875
1,1734117507026.6562,-13.671875,-55.17578125,-26.3671875,-55.6640625
2,1734117507030.5625,-7.32421875,-52.24609375,-27.83203125,-55.6640625
3,1734117507034.4688,-9.27734375,-49.8046875,-28.3203125,-47.8515625
4,1734117507038.375,-8.7890625,-48.33984375,-32.71484375,-46.38671875
5,1734117507042.2812,-7.8125,-45.41015625,-36.62109375,-40.52734375
6,1734117507046.1875,-8.7890625,-43.45703125,-30.76171875,-25.87890625
7,1734117507050.0938,-15.625,-54.6875,-29.296875,-22.4609375
8,1734117507054,-13.671875,-54.6875,-24.90234375,-24.90234375
9,1734117507057.9062,-14.16015625,-55.6640625,-21.484375,-21.97265625
10,1734117507061.8125,-23.4375,-63.96484375,-25.87890625,-27.83203125
11,1734117507065.7188,-22.4609375,-63.4765625,-28.80859375,-34.1796875
0,1734117507069.625,-21.97265625,-58.59375,-26.3671875,-25.87890625
1,1734117507073.5312,-24.90234375,-59.5703125,-24.90234375,-29.296875
2,1734117507077.4375,-22.4609375,-58.59375,-22.94921875,-36.62109375
3,1734117507081.3438,-29.296875,-58.10546875,-21.97265625,-31.25
4,1734117507085.25,-34.1796875,-62.01171875,-27.83203125,-30.2734375
5,1734117507089.1562,-29.78515625,-61.5234375,-32.71484375,-39.55078125
6,1734117507093.0625,-27.34375,-60.05859375,-38.0859375,-45.41015625
7,1734117507096.9688,-24.90234375,-59.5703125,-41.015625,-52.734375
8,1734117507100.875,-18.06640625,-59.08203125,-39.55078125,-49.31640625
9,1734117507104.7812,-8.30078125,-57.6171875,-40.0390625,-36.62109375
10,1734117507108.6875,-11.23046875,-62.01171875,-40.0390625,-39.0625
11,1734117507112.5938,-20.01953125,-63.4765625,-32.71484375,-44.43359375
0,1734117507116.5,-13.671875,-61.03515625,-30.2734375,-48.828125
1,1734117507120.4062,-11.71875,-57.6171875,-39.55078125,-50.29296875
2,1734117507124.3125,-12.20703125,-51.26953125,-37.59765625,-43.45703125
3,1734117507128.2188,-9.27734375,-56.15234375,-31.25,-40.0390625
4,1734117507132.125,-11.71875,-62.01171875,-27.34375,-34.66796875
5,1734117507136.0312,-12.6953125,-58.10546875,-26.85546875,-36.1328125
6,1734117507139.9375,-1.46484375,-52.734375,-32.2265625,-47.36328125
7,1734117507143.8438,-8.30078125,-56.15234375,-39.0625,-54.19921875
8,1734117507147.75,-19.53125,-57.12890625,-32.71484375,-49.31640625
9,1734117507151.6562,-13.671875,-53.22265625,-21.97265625,-36.1328125
10,1734117507155.5625,-15.13671875,-53.7109375,-30.76171875,-37.109375
11,1734117507159.4688,-18.06640625,-58.10546875,-35.64453125,-40.0390625
0,1734117507163.375,-18.5546875,-60.05859375,-31.25,-38.0859375
1,1734117507167.2812,-22.94921875,-57.12890625,-27.34375,-36.1328125
2,1734117507171.1875,-18.5546875,-55.6640625,-25.87890625,-26.3671875
3,1734117507175.0938,-14.16015625,-56.640625,-33.203125,-12.20703125
4,1734117507179,-15.13671875,-59.5703125,-34.66796875,-15.625
5,1734117507182.9062,-20.5078125,-55.6640625,-27.83203125,-21.97265625
6,1734117507186.8125,-21.484375,-50.78125,-27.34375,-10.7421875
7,1734117507190.7188,-20.99609375,-51.7578125,-36.1328125,-15.625
8,1734117507194.625,-26.3671875,-47.8515625,-33.203125,-17.08984375
9,1734117507198.5312,-26.3671875,-52.24609375,-28.80859375,-21.97265625
10,1734117507202.4375,-19.53125,-60.546875,-33.69140625,-31.73828125
11,1734117507206.3438,-18.06640625,-59.08203125,-38.0859375,-20.5078125
0,1734117507210.25,-10.25390625,-54.19921875,-36.62109375,-23.92578125
1,1734117507214.1562,-9.27734375,-56.640625,-33.69140625,-30.2734375
2,1734117507218.0625,-14.6484375,-61.03515625,-36.62109375,-20.01953125
3,1734117507221.9688,-14.16015625,-58.10546875,-36.1328125,-15.13671875
4,1734117507225.875,-4.8828125,-58.10546875,-30.76171875,-15.625
5,1734117507229.7812,-5.37109375,-59.5703125,-24.4140625,-20.01953125
6,1734117507233.6875,-15.625,-62.01171875,-32.71484375,-30.76171875
7,1734117507237.5938,-14.16015625,-60.546875,-37.109375,-30.2734375
8,1734117507241.5,-15.13671875,-60.05859375,-32.2265625,-21.97265625
9,1734117507245.4062,-12.6953125,-62.98828125,-37.109375,-33.203125
10,1734117507249.3125,-12.20703125,-61.03515625,-38.57421875,-44.43359375
11,1734117507253.2188,-15.13671875,-62.5,-36.62109375,-37.59765625
0,1734117507257.125,-16.11328125,-65.91796875,-38.0859375,-42.48046875
1,1734117507261.0312,-25.390625,-65.91796875,-35.15625,-48.828125
2,1734117507264.9375,-26.3671875,-61.03515625,-30.76171875,-44.43359375
3,1734117507268.8438,-17.578125,-57.12890625,-32.71484375,-48.33984375
4,1734117507272.75,-20.5078125,-57.12890625,-38.0859375,-39.0625
5,1734117507276.6562,-24.4140625,-58.59375,-42.48046875,-36.1328125
6,1734117507280.5625,-26.3671875,-58.59375,-37.109375,-39.55078125
7,1734117507284.4688,-34.1796875,-56.640625,-28.80859375,-36.62109375
8,1734117507288.375,-43.9453125,-57.12890625,-28.80859375,-44.921875
9,1734117507292.2812,-48.828125,-54.6875,-27.83203125,-41.9921875
10,1734117507296.1875,-50.29296875,-65.4296875,-28.80859375,-34.1796875
11,1734117507300.0938,-41.50390625,-68.84765625,-34.1796875,-34.1796875
0,1734117507304,-34.66796875,-60.05859375,-35.15625,-31.73828125
1,1734117507307.9062,-34.66796875,-55.6640625,-35.15625,-41.015625
2,1734117507311.8125,-34.66796875,-58.10546875,-35.64453125,-40.0390625
3,1734117507315.7188,-23.4375,-62.5,-35.15625,-28.80859375
4,1734117507319.625,-20.99609375,-63.96484375,-36.62109375,-23.4375
5,1734117507323.5312,-17.08984375,-63.4765625,-37.109375,-14.6484375
6,1734117507327.4375,-10.7421875,-58.59375,-35.64453125,-11.71875
7,1734117507331.3438,-8.30078125,-59.08203125,-34.66796875,-14.6484375
8,1734117507335.25,-3.41796875,-55.17578125,-33.69140625,-21.97265625
9,1734117507339.1562,-14.6484375,-52.24609375,-30.2734375,-18.5546875
10,1734117507343.0625,-23.4375,-56.15234375,-26.3671875,-10.25390625
11,1734117507346.9688,-23.4375,-54.6875,-29.296875,-19.04296875
0,1734117507350.875,-19.04296875,-54.19921875,-30.76171875,-30.76171875
1,1734117507354.7812,-11.71875,-54.19921875,-27.83203125,-30.2734375
2,1734117507358.6875,-13.671875,-56.15234375,-26.3671875,-31.25
3,1734117507362.5938,-22.4609375,-59.5703125,-32.71484375,-44.921875
4,1734117507366.5,-28.80859375,-62.98828125,-33.203125,-37.109375
5,1734117507370.4062,-28.80859375,-62.5,-31.25,-15.625
6,1734117507374.3125,-25.87890625,-62.01171875,-37.59765625,-16.11328125
7,1734117507378.2188,-23.92578125,-61.5234375,-41.015625,-25.87890625
8,1734117507382.125,-24.4140625,-59.5703125,-43.45703125,-27.34375
9,1734117507386.0312,-29.296875,-58.10546875,-39.0625,-32.2265625
10,1734117507389.9375,-30.2734375,-62.01171875,-36.1328125,-31.73828125
11,1734117507393.8438,-38.57421875,-67.3828125,-31.25,-29.296875
0,1734117507397.75,-31.25,-66.89453125,-29.296875,-36.1328125
1,1734117507401.6562,-24.90234375,-63.96484375,-31.73828125,-26.85546875
2,1734117507405.5625,-30.76171875,-64.94140625,-32.2265625,-21.484375
3,1734117507409.4688,-32.2265625,-69.3359375,-38.0859375,-34.66796875
4,1734117507413.375,-22.4609375,-69.82421875,-37.59765625,-33.203125
5,1734117507417.2812,-15.13671875,-66.40625,-36.62109375,-15.625
6,1734117507421.1875,-6.8359375,-61.03515625,-33.203125,-14.6484375
7,1734117507425.0938,-1.953125,-57.6171875,-30.2734375,-27.34375
8,1734117507429,11.23046875,-58.10546875,-31.25,-23.92578125
9,1734117507432.9062,13.18359375,-58.59375,-29.296875,-11.71875
10,1734117507436.8125,3.41796875,-58.59375,-38.0859375,-20.01953125
11,1734117507440.7188,1.46484375,-58.59375,-48.828125,-38.57421875
0,1734117507444.625,-9.27734375,-62.98828125,-44.43359375,-32.71484375
1,1734117507448.5312,-16.11328125,-63.96484375,-35.15625,-18.06640625
2,1734117507452.4375,-20.5078125,-62.01171875,-33.69140625,-20.99609375
3,1734117507456.3438,-24.4140625,-65.91796875,-33.203125,-17.578125
4,1734117507460.25,-23.92578125,-67.87109375,-27.83203125,-9.765625
5,1734117507464.1562,-23.92578125,-67.87109375,-32.71484375,-14.16015625
6,1734117507468.0625,-39.55078125,-73.2421875,-42.96875,-24.4140625
7,1734117507471.9688,-46.875,-69.3359375,-42.48046875,-30.76171875
8,1734117507475.875,-34.1796875,-59.5703125,-41.015625,-27.34375
9,1734117507479.7812,-33.203125,-58.10546875,-40.0390625,-20.01953125
10,1734117507483.6875,-37.109375,-62.98828125,-38.57421875,-25.390625
11,1734117507487.5938,-35.15625,-63.4765625,-36.1328125,-24.90234375
0,1734117507491.5,-20.5078125,-61.03515625,-34.66796875,-15.625
1,1734117507495.4062,-28.80859375,-63.4765625,-33.69140625,-12.6953125
2,1734117507499.3125,-40.52734375,-62.98828125,-29.296875,-14.16015625
3,1734117507503.2188,-29.78515625,-61.03515625,-30.76171875,-16.11328125
4,1734117507507.125,-34.1796875,-61.5234375,-39.55078125,-23.4375
5,1734117507511.0312,-37.59765625,-61.5234375,-38.0859375,-21.97265625
6,1734117507514.9375,-33.203125,-59.5703125,-32.2265625,-11.71875
7,1734117507518.8438,-31.25,-56.640625,-34.66796875,-14.16015625
8,1734117507522.75,-24.90234375,-57.6171875,-35.15625,-18.06640625
9,1734117507526.6562,-8.7890625,-54.6875,-40.0390625,-11.23046875
10,1734117507530.5625,-5.37109375,-52.24609375,-44.921875,-3.90625
11,1734117507534.4688,-9.765625,-52.734375,-37.109375,-5.859375
0,1734117507538.375,-7.32421875,-51.7578125,-29.296875,-1.953125
1,1734117507542.2812,-7.32421875,-54.19921875,-24.90234375,-4.39453125
2,1734117507546.1875,4.8828125,-53.22265625,-22.94921875,-22.94921875
3,1734117507550.0938,8.30078125,-53.22265625,-20.99609375,-19.04296875
4,1734117507554,-2.9296875,-55.6640625,-29.296875,-17.578125
5,1734117507557.9062,-5.859375,-54.19921875,-37.109375,-25.390625
6,1734117507561.8125,-11.23046875,-57.12890625,-36.1328125,-35.64453125
7,1734117507565.7188,-20.01953125,-59.08203125,-30.2734375,-36.1328125
8,1734117507569.625,-16.11328125,-59.08203125,-28.3203125,-26.85546875
9,1734117507573.5312,-12.20703125,-63.4765625,-30.76171875,-27.34375
10,1734117507577.4375,-18.06640625,-62.5,-31.25,-33.203125
11,1734117507581.3438,-8.30078125,-57.6171875,-23.92578125,-30.2734375
0,1734117507585.25,1.953125,-53.22265625,-19.53125,-30.76171875
1,1734117507589.1562,-21.97265625,-54.6875,-21.484375,-38.0859375
2,1734117507593.0625,-25.87890625,-58.10546875,-23.4375,-36.62109375
3,1734117507596.9688,-23.4375,-59.5703125,-29.78515625,-29.296875
4,1734117507600.875,-23.4375,-62.01171875,-32.2265625,-25.87890625
5,1734117507604.7812,-20.99609375,-59.08203125,-30.76171875,-32.71484375
6,1734117507608.6875,-28.80859375,-52.24609375,-25.390625,-34.66796875
7,1734117507612.5938,-24.90234375,-57.12890625,-22.94921875,-14.6484375
8,1734117507616.5,-21.97265625,-61.03515625,-23.92578125,1.953125
9,1734117507620.4062,-20.01953125,-58.10546875,-28.3203125,-20.01953125
10,1734117507624.3125,-15.625,-56.15234375,-28.80859375,-21.484375
11,1734117507628.2188,-23.4375,-57.12890625,-30.76171875,-22.4609375
0,1734117507632.125,-23.92578125,-53.22265625,-31.25,-34.66796875
1,1734117507636.0312,-9.765625,-50.78125,-29.78515625,-29.78515625
2,1734117507639.9375,-9.27734375,-53.22265625,-32.71484375,-28.3203125
3,1734117507643.8438,-17.08984375,-51.26953125,-28.80859375,-20.99609375
4,1734117507647.75,-10.25390625,-55.17578125,-29.78515625,-20.01953125
5,1734117507651.6562,-2.9296875,-58.59375,-36.1328125,-28.3203125
6,1734117507655.5625,-11.23046875,-56.640625,-36.62109375,-30.2734375
7,1734117507659.4688,-17.08984375,-55.17578125,-32.71484375,-27.83203125
8,1734117507663.375,-15.13671875,-55.17578125,-35.64453125,-32.71484375
9,1734117507667.2812,-16.11328125,-53.7109375,-39.55078125,-35.15625
10,1734117507671.1875,-16.11328125,-51.26953125,-36.62109375,-27.34375
11,1734117507675.0938,-14.16015625,-56.15234375,-38.0859375,-29.296875
0,1734117507679,-5.37109375,-55.6640625,-38.57421875,-31.25
1,1734117507682.9062,-12.20703125,-54.6875,-33.69140625,-32.71484375
2,1734117507686.8125,-24.4140625,-54.19921875,-28.80859375,-30.76171875
3,1734117507690.7188,-21.97265625,-57.6171875,-29.78515625,-28.3203125
4,1734117507694.625,-22.4609375,-59.5703125,-30.2734375,-31.25
5,1734117507698.5312,-30.76171875,-57.12890625,-27.34375,-26.3671875
6,1734117507702.4375,-41.015625,-60.546875,-28.80859375,-26.3671875
7,1734117507706.3438,-41.9921875,-62.98828125,-28.3203125,-30.76171875
8,1734117507710.25,-45.41015625,-63.4765625,-35.15625,-36.1328125
9,1734117507714.1562,-36.62109375,-62.5,-38.57421875,-31.73828125
10,1734117507718.0625,-25.87890625,-60.546875,-36.1328125,-20.01953125
11,1734117507721.9688,-41.50390625,-63.4765625,-38.57421875,-14.16015625
0,1734117507725.875,-29.78515625,-65.91796875,-36.1328125,-10.25390625
1,1734117507729.7812,-20.01953125,-60.05859375,-30.76171875,-2.44140625
2,1734117507733.6875,-32.71484375,-55.6640625,-26.3671875,-0.9765625
3,1734117507737.5938,-20.5078125,-54.19921875,-24.90234375,-1.953125
4,1734117507741.5,-12.6953125,-57.12890625,-25.390625,5.859375
5,1734117507745.4062,-18.06640625,-60.546875,-27.34375,8.7890625
6,1734117507749.3125,-10.7421875,-54.19921875,-21.97265625,14.16015625
7,1734117507753.2188,-11.71875,-51.7578125,-21.97265625,10.25390625
8,1734117507757.125,-15.13671875,-56.15234375,-26.85546875,2.9296875
9,1734117507761.0312,-11.23046875,-59.08203125,-30.76171875,10.25390625
10,1734117507764.9375,-8.30078125,-60.546875,-33.203125,12.20703125
11,1734117507768.8438,-7.32421875,-62.98828125,-29.296875,3.41796875
0,1734117507772.75,-3.41796875,-61.5234375,-26.3671875,-1.46484375
1,1734117507776.6562,-0.48828125,-58.59375,-28.3203125,0.9765625
2,1734117507780.5625,-4.8828125,-60.05859375,-38.0859375,-0.48828125
3,1734117507784.4688,-14.6484375,-65.91796875,-37.59765625,-5.859375
4,1734117507788.375,-25.87890625,-70.80078125,-28.80859375,-4.8828125
5,1734117507792.2812,-29.78515625,-70.80078125,-24.90234375,-2.9296875
6,1734117507796.1875,-33.69140625,-69.82421875,-25.390625,-4.8828125
7,1734117507800.0938,-45.41015625,-67.87109375,-25.87890625,-14.6484375
8,1734117507804,-47.36328125,-68.84765625,-26.85546875,-25.390625
9,1734117507807.9062,-41.015625,-66.40625,-24.90234375,-17.08984375
10,1734117507811.8125,-43.45703125,-66.40625,-24.4140625,-8.7890625
11,1734117507815.7188,-45.41015625,-63.4765625,-26.3671875,-25.390625
0,1734117507819.625,-34.66796875,-57.6171875,-26.3671875,-24.4140625
1,1734117507823.5312,-28.80859375,-57.6171875,-28.3203125,-8.7890625
2,1734117507827.4375,-23.92578125,-56.640625,-27.83203125,-6.8359375
3,1734117507831.3438,-23.92578125,-61.5234375,-33.69140625,-10.7421875
4,1734117507835.25,-25.87890625,-58.59375,-35.15625,-8.30078125
5,1734117507839.1562,-20.99609375,-54.6875,-29.78515625,-13.18359375
6,1734117507843.0625,-20.01953125,-62.5,-27.83203125,-16.6015625
7,1734117507846.9688,-37.109375,-71.77734375,-34.1796875,-21.97265625
8,1734117507850.875,-41.9921875,-72.265625,-37.109375,-20.5078125
9,1734117507854.7812,-33.69140625,-66.89453125,-30.76171875,-7.8125
10,1734117507858.6875,-33.203125,-64.94140625,-28.80859375,-0.48828125
11,1734117507862.5938,-36.1328125,-66.89453125,-36.62109375,0.9765625
0,1734117507866.5,-18.06640625,-68.84765625,-37.109375,2.9296875
1,1734117507870.4062,-2.44140625,-68.359375,-38.57421875,2.44140625
2,1734117507874.3125,-6.8359375,-66.89453125,-39.55078125,-4.8828125
3,1734117507878.2188,-8.30078125,-66.40625,-32.71484375,-0.9765625
4,1734117507882.125,-5.859375,-63.96484375,-29.78515625,-0.48828125
5,1734117507886.0312,0,-62.01171875,-28.80859375,0
6,1734117507889.9375,3.41796875,-59.5703125,-32.2265625,-5.859375
7,1734117507893.8438,10.25390625,-60.546875,-34.1796875,-14.16015625
8,1734117507897.75,9.765625,-60.546875,-27.34375,-8.30078125
9,1734117507901.6562,-5.37109375,-61.5234375,-28.80859375,-0.9765625
10,1734117507905.5625,-12.20703125,-61.03515625,-33.69140625,-3.41796875
11,1734117507909.4688,-17.578125,-58.59375,-28.3203125,-5.859375
0,1734117507913.375,-21.97265625,-66.40625,-24.90234375,-11.71875
1,1734117507917.2812,-22.4609375,-70.80078125,-24.4140625,-20.01953125
2,1734117507921.1875,-25.390625,-68.359375,-26.3671875,-20.5078125
3,1734117507925.0938,-28.80859375,-65.4296875,-27.83203125,-14.16015625
4,1734117507929,-31.73828125,-64.94140625,-27.34375,-8.30078125
5,1734117507932.9062,-29.296875,-62.5,-24.4140625,-17.578125
6,1734117507936.8125,-45.8984375,-65.4296875,-22.4609375,-36.62109375
7,1734117507940.7188,-58.59375,-66.40625,-24.90234375,-39.55078125
8,1734117507944.625,-46.875,-65.91796875,-27.34375,-39.0625
9,1734117507948.5312,-42.48046875,-71.77734375,-27.34375,-38.0859375
10,1734117507952.4375,-47.8515625,-70.80078125,-28.80859375,-35.15625
11,1734117507956.3438,-47.8515625,-70.80078125,-26.3671875,-33.203125
0,1734117507960.25,-40.52734375,-70.80078125,-29.296875,-34.66796875
1,1734117507964.1562,-39.0625,-71.2890625,-30.76171875,-29.296875
2,1734117507968.0625,-34.1796875,-70.3125,-27.34375,-22.94921875
3,1734117507971.9688,-23.92578125,-67.3828125,-28.80859375,-20.99609375
4,1734117507975.875,-26.3671875,-65.4296875,-26.85546875,-20.01953125
5,1734117507979.7812,-29.78515625,-60.05859375,-19.53125,-12.6953125
6,1734117507983.6875,-22.94921875,-66.89453125,-25.87890625,-14.16015625
7,1734117507987.5938,-22.4609375,-73.2421875,-30.2734375,-17.08984375
8,1734117507991.5,-23.4375,-65.4296875,-26.85546875,-9.765625
9,1734117507995.4062,-20.01953125,-60.546875,-29.78515625,-14.16015625
10,1734117507999.3125,-17.578125,-61.03515625,-29.296875,-15.13671875
11,1734117508003.2188,-17.08984375,-68.84765625,-28.3203125,-11.23046875
0,1734117508007.125,-20.01953125,-72.75390625,-34.1796875,-21.484375
1,1734117508011.0312,-20.01953125,-72.265625,-37.109375,-23.92578125
2,1734117508014.9375,-12.20703125,-70.3125,-35.15625,-14.16015625
3,1734117508018.8438,-12.6953125,-69.3359375,-33.69140625,-22.4609375
4,1734117508022.75,-21.484375,-73.2421875,-34.1796875,-22.94921875
5,1734117508026.6562,-15.625,-70.3125,-31.73828125,-14.6484375
6,1734117508030.5625,-11.71875,-67.87109375,-27.83203125,-16.6015625
7,1734117508034.4688,-7.32421875,-65.91796875,-21.97265625,-5.859375
8,1734117508038.375,-10.25390625,-64.453125,-24.4140625,-3.41796875
9,1734117508042.2812,-27.83203125,-67.87109375,-28.3203125,-14.16015625
10,1734117508046.1875,-33.69140625,-66.89453125,-22.4609375,-14.16015625
11,1734117508050.0938,-31.25,-63.4765625,-20.01953125,-17.578125
0,1734117508054,-30.76171875,-65.91796875,-22.94921875,-22.4609375
1,1734117508057.9062,-36.1328125,-63.96484375,-24.90234375,-22.4609375
2,1734117508061.8125,-39.0625,-61.03515625,-23.92578125,-20.99609375
3,1734117508065.7188,-29.78515625,-58.59375,-23.92578125,-16.6015625
4,1734117508069.625,-24.4140625,-53.7109375,-19.53125,-15.625
5,1734117508073.5312,-21.484375,-52.24609375,-21.484375,-22.4609375
6,1734117508077.4375,-20.01953125,-59.08203125,-26.85546875,-9.27734375
7,1734117508081.3438,-23.4375,-67.87109375,-27.83203125,-6.34765625
8,1734117508085.25,-20.99609375,-61.5234375,-30.2734375,-17.578125
9,1734117508089.1562,-18.5546875,-54.6875,-33.69140625,-19.53125
10,1734117508093.0625,-4.8828125,-52.24609375,-30.76171875,-2.9296875
11,1734117508096.9688,-5.37109375,-55.17578125,-26.85546875,6.8359375
0,1734117508100.875,-13.18359375,-58.10546875,-29.296875,-8.30078125
1,1734117508104.7812,-8.30078125,-53.7109375,-27.83203125,-5.37109375
2,1734117508108.6875,-19.04296875,-60.05859375,-29.78515625,-8.30078125
3,1734117508112.5938,-13.671875,-62.5,-31.73828125,-14.16015625
4,1734117508116.5,-3.41796875,-55.6640625,-31.25,-8.30078125
5,1734117508120.4062,-8.30078125,-57.12890625,-34.66796875,-15.13671875
6,1734117508124.3125,-9.27734375,-58.59375,-32.71484375,-19.53125
7,1734117508128.2188,-17.08984375,-54.6875,-29.296875,-25.87890625
8,1734117508132.125,-21.484375,-53.7109375,-29.78515625,-29.78515625
9,1734117508136.0312,-27.83203125,-56.640625,-31.73828125,-32.71484375
10,1734117508139.9375,-35.15625,-61.03515625,-33.69140625,-40.52734375
11,1734117508143.8438,-36.62109375,-66.89453125,-34.1796875,-49.8046875
0,1734117508147.75,-34.66796875,-66.89453125,-32.71484375,-57.12890625
1,1734117508151.6562,-36.1328125,-67.87109375,-31.73828125,-52.24609375
2,1734117508155.5625,-44.921875,-68.84765625,-27.34375,-42.48046875
3,1734117508159.4688,-49.31640625,-66.89453125,-28.3203125,-49.31640625
4,1734117508163.375,-50.78125,-71.2890625,-32.71484375,-53.7109375
5,1734117508167.2812,-51.7578125,-69.82421875,-28.80859375,-47.36328125
6,1734117508171.1875,-42.96875,-70.3125,-25.390625,-44.921875
7,1734117508175.0938,-46.38671875,-77.63671875,-31.73828125,-46.875
8,1734117508179,-49.8046875,-77.63671875,-33.69140625,-42.96875
9,1734117508182.9062,-27.83203125,-73.73046875,-27.83203125,-19.53125
10,1734117508186.8125,-27.34375,-66.89453125,-29.296875,-7.8125
11,1734117508190.7188,-32.2265625,-63.96484375,-32.2265625,-21.484375
0,1734117508194.625,-18.06640625,-62.01171875,-26.3671875,-16.6015625
1,1734117508198.5312,-20.01953125,-62.98828125,-30.2734375,-8.7890625
2,1734117508202.4375,-17.08984375,-62.98828125,-35.15625,-10.7421875
3,1734117508206.3438,-14.6484375,-61.5234375,-37.109375,-7.32421875
4,1734117508210.25,-13.671875,-59.08203125,-35.15625,-4.39453125
5,1734117508214.1562,-2.44140625,-57.6171875,-30.76171875,-7.8125
6,1734117508218.0625,-5.37109375,-59.5703125,-27.83203125,-12.20703125
7,1734117508221.9688,-9.27734375,-61.03515625,-27.83203125,-19.53125
8,1734117508225.875,7.32421875,-58.10546875,-26.3671875,-7.32421875
9,1734117508229.7812,10.7421875,-56.640625,-27.83203125,0.9765625
10,1734117508233.6875,3.41796875,-59.08203125,-34.1796875,-12.20703125
11,1734117508237.5938,4.8828125,-56.640625,-31.73828125,-8.7890625
0,1734117508241.5,5.37109375,-54.19921875,-28.80859375,0
1,1734117508245.4062,10.7421875,-49.8046875,-27.34375,-6.34765625
2,1734117508249.3125,3.41796875,-53.22265625,-29.296875,-15.13671875
3,1734117508253.2188,0.9765625,-55.17578125,-32.2265625,-19.53125
4,1734117508257.125,5.859375,-53.7109375,-34.66796875,-13.18359375
5,1734117508261.0312,-3.90625,-59.5703125,-33.69140625,-11.23046875
6,1734117508264.9375,-31.73828125,-58.10546875,-30.2734375,-26.3671875
7,1734117508268.8438,-40.52734375,-58.59375,-29.78515625,-32.71484375
8,1734117508272.75,-39.0625,-60.546875,-26.85546875,-23.4375
9,1734117508276.6562,-59.08203125,-62.01171875,-25.87890625,-14.16015625
10,1734117508280.5625,-62.01171875,-62.98828125,-29.78515625,-31.73828125
11,1734117508284.4688,-60.05859375,-61.03515625,-27.34375,-35.64453125
0,1734117508288.375,-62.5,-62.5,-22.94921875,-31.25
1,1734117508292.2812,-54.19921875,-62.01171875,-28.80859375,-23.4375
2,1734117508296.1875,-47.8515625,-60.546875,-35.15625,-15.625
3,1734117508300.0938,-34.66796875,-57.12890625,-31.73828125,-11.71875
4,1734117508304,-21.484375,-54.19921875,-28.3203125,-8.30078125
5,1734117508307.9062,-14.16015625,-59.08203125,-33.69140625,-7.32421875
6,1734117508311.8125,-1.953125,-57.12890625,-33.203125,-3.90625
7,1734117508315.7188,-9.27734375,-52.24609375,-27.83203125,-5.37109375
8,1734117508319.625,-15.625,-55.17578125,-27.83203125,5.37109375
9,1734117508323.5312,-10.7421875,-60.05859375,-28.80859375,3.90625
10,1734117508327.4375,-3.90625,-54.6875,-27.34375,0
11,1734117508331.3438,-1.46484375,-53.7109375,-26.85546875,7.8125
0,1734117508335.25,-4.8828125,-52.734375,-30.76171875,-1.953125
1,1734117508339.1562,-1.953125,-48.33984375,-30.76171875,-8.7890625
2,1734117508343.0625,5.37109375,-45.41015625,-29.78515625,0
3,1734117508346.9688,2.44140625,-47.36328125,-35.64453125,-3.41796875
4,1734117508350.875,-11.71875,-50.29296875,-37.59765625,-12.20703125
5,1734117508354.7812,-5.37109375,-48.33984375,-35.15625,-7.8125
6,1734117508358.6875,-2.44140625,-53.7109375,-37.59765625,-9.765625
7,1734117508362.5938,-14.6484375,-57.6171875,-37.109375,-10.25390625
8,1734117508366.5,-20.5078125,-56.15234375,-32.71484375,-4.8828125
9,1734117508370.4062,-15.13671875,-54.6875,-29.296875,-10.25390625
10,1734117508374.3125,-19.53125,-58.10546875,-32.2265625,-20.5078125
11,1734117508378.2188,-38.0859375,-60.546875,-37.109375,-28.80859375
0,1734117508382.125,-39.0625,-59.08203125,-36.62109375,-33.203125
1,1734117508386.0312,-34.1796875,-60.546875,-36.62109375,-43.9453125
2,1734117508389.9375,-38.0859375,-60.546875,-40.0390625,-44.921875
3,1734117508393.8438,-32.71484375,-52.24609375,-40.0390625,-37.59765625
4,1734117508397.75,-26.85546875,-51.7578125,-38.57421875,-37.59765625
5,1734117508401.6562,-24.4140625,-49.8046875,-39.0625,-31.73828125
6,1734117508405.5625,-29.78515625,-52.734375,-38.0859375,-27.83203125
7,1734117508409.4688,-32.2265625,-59.5703125,-35.15625,-26.85546875
8,1734117508413.375,-23.4375,-61.5234375,-37.59765625,-30.2734375
9,1734117508417.2812,-31.25,-62.98828125,-38.0859375,-28.80859375
10,1734117508421.1875,-21.484375,-53.7109375,-28.80859375,-13.18359375
11,1734117508425.0938,-8.7890625,-51.26953125,-29.296875,-7.8125
0,1734117508429,-9.27734375,-50.29296875,-34.1796875,-5.37109375
1,1734117508432.9062,-3.41796875,-46.38671875,-32.71484375,-1.953125
2,1734117508436.8125,6.8359375,-48.828125,-30.2734375,5.859375
3,1734117508440.7188,8.30078125,-46.875,-28.3203125,6.34765625
4,1734117508444.625,-6.8359375,-48.33984375,-31.25,-3.41796875
5,1734117508448.5312,-4.39453125,-52.24609375,-31.25,9.765625
6,1734117508452.4375,3.41796875,-52.734375,-30.76171875,25.87890625
7,1734117508456.3438,-3.41796875,-56.15234375,-26.85546875,20.01953125
8,1734117508460.25,-3.41796875,-57.6171875,-31.73828125,9.27734375
9,1734117508464.1562,-6.34765625,-59.5703125,-37.109375,13.18359375
10,1734117508468.0625,-7.32421875,-60.546875,-35.64453125,17.08984375
11,1734117508471.9688,-4.8828125,-59.08203125,-33.203125,10.7421875
0,1734117508475.875,-13.671875,-60.05859375,-29.296875,7.32421875
1,1734117508479.7812,-20.01953125,-57.12890625,-28.3203125,1.46484375
2,1734117508483.6875,-20.01953125,-60.05859375,-31.25,-1.953125
3,1734117508487.5938,-27.34375,-65.91796875,-35.64453125,-11.71875
4,1734117508491.5,-34.66796875,-62.98828125,-31.73828125,-16.6015625
5,1734117508495.4062,-25.87890625,-62.5,-29.78515625,-6.34765625
6,1734117508499.3125,-27.34375,-60.05859375,-27.34375,-4.8828125
7,1734117508503.2188,-40.0390625,-59.5703125,-27.34375,-5.859375
8,1734117508507.125,-45.41015625,-65.91796875,-33.203125,-18.06640625
9,1734117508511.0312,-45.41015625,-59.5703125,-25.390625,-18.06640625
10,1734117508514.9375,-37.59765625,-50.78125,-25.390625,-10.25390625
11,1734117508518.8438,-41.015625,-53.7109375,-27.83203125,-6.8359375
0,1734117508522.75,-40.0390625,-59.08203125,-26.3671875,-4.8828125
1,1734117508526.6562,-33.203125,-59.5703125,-27.34375,-0.9765625
2,1734117508530.5625,-27.83203125,-60.546875,-27.83203125,0.9765625
3,1734117508534.4688,-17.08984375,-62.01171875,-31.25,-0.9765625
4,1734117508538.375,-16.11328125,-62.01171875,-32.2265625,-4.8828125
5,1734117508542.2812,-12.20703125,-58.59375,-29.296875,9.765625
6,1734117508546.1875,-1.953125,-53.22265625,-29.296875,22.4609375
7,1734117508550.0938,0.9765625,-50.78125,-28.80859375,16.11328125
8,1734117508554,-4.39453125,-48.828125,-27.34375,15.625
9,1734117508557.9062,-3.41796875,-52.734375,-26.3671875,20.01953125
10,1734117508561.8125,-8.7890625,-63.4765625,-29.78515625,10.7421875
11,1734117508565.7188,-8.30078125,-62.98828125,-33.203125,-1.46484375
0,1734117508569.625,-8.7890625,-56.15234375,-30.76171875,2.9296875
1,1734117508573.5312,-12.20703125,-52.24609375,-31.73828125,0.48828125
2,1734117508577.4375,-9.27734375,-53.7109375,-33.203125,0.48828125
3,1734117508581.3438,-12.6953125,-56.640625,-32.2265625,5.859375
4,1734117508585.25,-20.5078125,-58.10546875,-29.296875,0
5,1734117508589.1562,-27.83203125,-63.4765625,-27.34375,1.46484375
6,1734117508593.0625,-20.5078125,-61.5234375,-23.92578125,2.9296875
7,1734117508596.9688,-14.16015625,-61.03515625,-30.2734375,0.48828125
8,1734117508600.875,-26.85546875,-60.05859375,-38.57421875,-6.34765625
9,1734117508604.7812,-32.2265625,-55.17578125,-37.109375,-7.8125
10,1734117508608.6875,-43.9453125,-55.17578125,-41.50390625,-20.01953125
11,1734117508612.5938,-51.7578125,-58.10546875,-41.9921875,-27.34375
0,1734117508616.5,-47.8515625,-58.59375,-37.59765625,-20.5078125
1,1734117508620.4062,-40.0390625,-58.10546875,-40.0390625,-16.11328125
2,1734117508624.3125,-28.80859375,-55.6640625,-36.1328125,-15.625
3,1734117508628.2188,-34.1796875,-57.12890625,-32.2265625,-8.7890625
4,1734117508632.125,-41.015625,-63.96484375,-33.203125,-7.32421875
5,1734117508636.0312,-34.1796875,-64.94140625,-32.2265625,-13.671875
6,1734117508639.9375,-32.71484375,-62.01171875,-32.71484375,-5.859375
7,1734117508643.8438,-31.73828125,-61.03515625,-34.1796875,-6.8359375
8,1734117508647.75,-25.87890625,-63.4765625,-38.0859375,-7.8125
9,1734117508651.6562,-23.92578125,-60.546875,-31.25,12.6953125
10,1734117508655.5625,-19.53125,-55.6640625,-36.1328125,7.8125
11,1734117508659.4688,-9.27734375,-56.15234375,-45.8984375,-4.8828125
0,1734117508663.375,-3.90625,-56.640625,-35.64453125,3.41796875
1,1734117508667.2812,-8.7890625,-57.6171875,-32.2265625,-3.41796875
2,1734117508671.1875,-6.8359375,-57.6171875,-33.203125,-8.7890625
3,1734117508675.0938,-4.39453125,-57.12890625,-32.2265625,-11.23046875
4,1734117508679,-9.27734375,-56.640625,-33.69140625,-13.671875
5,1734117508682.9062,-8.7890625,-56.15234375,-35.15625,-11.23046875
6,1734117508686.8125,0.9765625,-53.7109375,-33.69140625,-5.37109375
7,1734117508690.7188,-3.41796875,-51.26953125,-30.76171875,-2.44140625
8,1734117508694.625,-13.18359375,-50.78125,-31.25,3.41796875
9,1734117508698.5312,-14.6484375,-51.26953125,-36.1328125,-8.30078125
10,1734117508702.4375,-15.13671875,-55.6640625,-30.2734375,-19.53125
11,1734117508706.3438,-19.04296875,-61.5234375,-28.80859375,-18.06640625
0,1734117508710.25,-28.3203125,-61.03515625,-35.64453125,-20.01953125
1,1734117508714.1562,-31.73828125,-61.03515625,-36.1328125,-28.3203125
2,1734117508718.0625,-29.296875,-63.4765625,-30.2734375,-26.3671875
3,1734117508721.9688,-33.69140625,-62.98828125,-27.83203125,-21.484375
4,1734117508725.875,-44.43359375,-57.12890625,-27.83203125,-19.04296875
5,1734117508729.7812,-41.9921875,-50.29296875,-25.87890625,-15.13671875
6,1734117508733.6875,-34.66796875,-55.17578125,-27.83203125,-16.11328125
7,1734117508737.5938,-37.109375,-59.08203125,-27.83203125,-7.8125
8,1734117508741.5,-40.0390625,-61.03515625,-21.97265625,0.48828125
9,1734117508745.4062,-36.1328125,-61.5234375,-26.85546875,-5.859375
10,1734117508749.3125,-26.3671875,-57.12890625,-29.296875,-0.48828125
11,1734117508753.2188,-26.85546875,-57.12890625,-29.296875,4.8828125
0,1734117508757.125,-22.4609375,-60.05859375,-27.83203125,1.953125
1,1734117508761.0312,-26.85546875,-61.5234375,-29.296875,-0.48828125
2,1734117508764.9375,-35.15625,-59.08203125,-37.109375,-2.44140625
3,1734117508768.8438,-22.94921875,-55.17578125,-37.59765625,-2.9296875
4,1734117508772.75,-15.13671875,-55.6640625,-36.1328125,4.39453125
5,1734117508776.6562,-22.4609375,-58.10546875,-36.62109375,3.90625
6,1734117508780.5625,-23.92578125,-61.03515625,-35.15625,5.859375
7,1734117508784.4688,-10.7421875,-57.6171875,-36.62109375,16.11328125
8,1734117508788.375,-7.32421875,-59.08203125,-44.921875,9.765625
9,1734117508792.2812,-9.765625,-61.03515625,-48.828125,-1.953125
10,1734117508796.1875,-17.578125,-59.5703125,-43.45703125,-1.46484375
11,1734117508800.0938,-17.578125,-58.59375,-38.57421875,1.953125
0,1734117508804,-9.765625,-54.19921875,-39.0625,1.953125
1,1734117508807.9062,-20.01953125,-52.734375,-39.0625,-0.9765625
2,1734117508811.8125,-28.3203125,-59.5703125,-36.62109375,-5.37109375
3,1734117508815.7188,-21.484375,-59.5703125,-35.64453125,-8.7890625
4,1734117508819.625,-15.625,-58.59375,-41.015625,-17.578125
5,1734117508823.5312,-33.203125,-61.03515625,-38.57421875,-16.11328125
6,1734117508827.4375,-40.0390625,-57.12890625,-33.203125,-12.20703125
7,1734117508831.3438,-39.55078125,-56.15234375,-28.80859375,-16.11328125
8,1734117508835.25,-53.7109375,-58.59375,-29.78515625,-26.85546875
9,1734117508839.1562,-44.43359375,-58.10546875,-29.296875,-38.0859375
10,1734117508843.0625,-38.57421875,-54.6875,-27.83203125,-35.15625
11,1734117508846.9688,-53.22265625,-59.5703125,-34.1796875,-35.64453125
0,1734117508850.875,-49.31640625,-60.05859375,-36.62109375,-34.66796875
1,1734117508854.7812,-42.96875,-57.6171875,-36.62109375,-29.296875
2,1734117508858.6875,-35.64453125,-56.15234375,-33.69140625,-19.04296875
3,1734117508862.5938,-21.484375,-52.24609375,-30.2734375,-9.765625
4,1734117508866.5,-17.08984375,-54.6875,-34.66796875,-4.8828125
5,1734117508870.4062,-13.18359375,-59.08203125,-39.0625,2.44140625
6,1734117508874.3125,-9.27734375,-58.10546875,-35.64453125,10.25390625
7,1734117508878.2188,-11.71875,-57.12890625,-34.66796875,8.30078125
8,1734117508882.125,-3.41796875,-59.5703125,-43.45703125,0.9765625
9,1734117508886.0312,-8.30078125,-60.546875,-44.43359375,0.9765625
10,1734117508889.9375,-13.671875,-56.640625,-41.50390625,0.9765625
11,1734117508893.8438,-15.625,-51.7578125,-49.31640625,-2.9296875
0,1734117508897.75,-13.671875,-50.78125,-45.8984375,-3.41796875
1,1734117508901.6562,-8.30078125,-48.33984375,-33.69140625,0.9765625
2,1734117508905.5625,-15.625,-48.828125,-33.203125,-0.48828125
3,1734117508909.4688,-8.7890625,-56.640625,-37.59765625,-3.41796875
4,1734117508913.375,-0.48828125,-57.6171875,-32.71484375,-1.46484375
5,1734117508917.2812,1.953125,-52.734375,-27.34375,11.23046875
6,1734117508921.1875,-12.20703125,-56.15234375,-34.66796875,3.41796875
7,1734117508925.0938,-19.04296875,-57.12890625,-43.9453125,-16.6015625
8,1734117508929,-13.671875,-49.8046875,-39.0625,-17.08984375
9,1734117508932.9062,-17.578125,-51.7578125,-35.64453125,-11.23046875
10,1734117508936.8125,-17.08984375,-56.15234375,-37.59765625,-8.30078125
11,1734117508940.7188,-14.6484375,-54.6875,-40.52734375,-17.578125
0,1734117508944.625,-21.484375,-57.6171875,-40.52734375,-16.6015625
1,1734117508948.5312,-29.296875,-59.5703125,-41.50390625,-14.16015625
2,1734117508952.4375,-35.15625,-56.640625,-45.41015625,-24.4140625
3,1734117508956.3438,-40.0390625,-56.15234375,-43.9453125,-23.4375
4,1734117508960.25,-38.0859375,-56.15234375,-40.52734375,-16.11328125
5,1734117508964.1562,-28.3203125,-54.6875,-38.0859375,-10.25390625
6,1734117508968.0625,-33.203125,-57.12890625,-38.0859375,-17.578125
7,1734117508971.9688,-21.97265625,-51.7578125,-36.62109375,-28.3203125
8,1734117508975.875,-8.30078125,-50.78125,-39.0625,-25.87890625
9,1734117508979.7812,-22.4609375,-58.59375,-47.36328125,-13.18359375
10,1734117508983.6875,-17.08984375,-58.59375,-41.50390625,-5.37109375
11,1734117508987.5938,-9.765625,-52.734375,-36.1328125,-8.7890625
0,1734117508991.5,-11.71875,-51.26953125,-36.62109375,-0.48828125
1,1734117508995.4062,-9.27734375,-56.640625,-39.55078125,0.9765625
2,1734117508999.3125,-11.23046875,-56.640625,-40.52734375,1.46484375
3,1734117509003.2188,-7.32421875,-52.24609375,-35.64453125,9.765625
4,1734117509007.125,-8.30078125,-55.17578125,-33.69140625,13.671875
5,1734117509011.0312,-0.48828125,-51.7578125,-32.2265625,19.04296875
6,1734117509014.9375,-5.37109375,-50.29296875,-27.83203125,12.6953125
7,1734117509018.8438,-28.3203125,-54.6875,-31.25,2.9296875
8,1734117509022.75,-26.85546875,-50.78125,-34.1796875,4.39453125
9,1734117509026.6562,-23.4375,-47.36328125,-34.1796875,1.953125
10,1734117509030.5625,-29.78515625,-46.38671875,-33.69140625,-5.859375
11,1734117509034.4688,-20.99609375,-44.921875,-28.80859375,1.46484375
0,1734117509038.375,-15.13671875,-51.26953125,-25.390625,3.41796875
1,1734117509042.2812,-33.203125,-54.6875,-28.3203125,-6.34765625
2,1734117509046.1875,-37.59765625,-52.734375,-31.73828125,-9.27734375
3,1734117509050.0938,-37.109375,-52.24609375,-31.73828125,-9.27734375
4,1734117509054,-42.96875,-54.6875,-34.1796875,-11.71875
5,1734117509057.9062,-39.55078125,-57.12890625,-35.64453125,-15.625
6,1734117509061.8125,-31.25,-54.6875,-35.64453125,-20.99609375
7,1734117509065.7188,-30.76171875,-52.734375,-36.62109375,-25.390625
8,1734117509069.625,-29.78515625,-56.640625,-34.1796875,-20.01953125
9,1734117509073.5312,-28.80859375,-61.5234375,-37.109375,-25.390625
10,1734117509077.4375,-30.76171875,-61.03515625,-37.59765625,-26.3671875
11,1734117509081.3438,-22.4609375,-56.15234375,-31.25,-10.7421875
0,1734117509085.25,-19.04296875,-55.6640625,-31.25,1.953125
1,1734117509089.1562,-19.04296875,-56.640625,-34.1796875,11.71875
2,1734117509093.0625,-12.20703125,-52.24609375,-34.1796875,9.27734375
3,1734117509096.9688,-4.39453125,-53.22265625,-34.66796875,21.484375
4,1734117509100.875,2.9296875,-57.6171875,-40.0390625,26.3671875
5,1734117509104.7812,5.859375,-55.17578125,-35.64453125,15.625
6,1734117509108.6875,5.859375,-50.78125,-30.76171875,21.97265625
7,1734117509112.5938,16.6015625,-51.7578125,-31.73828125,27.34375
8,1734117509116.5,12.20703125,-55.6640625,-34.66796875,26.3671875
9,1734117509120.4062,6.8359375,-54.19921875,-38.57421875,18.06640625
10,1734117509124.3125,14.6484375,-46.875,-40.0390625,17.578125
11,1734117509128.2188,5.859375,-45.8984375,-39.55078125,15.13671875
0,1734117509132.125,-0.9765625,-50.78125,-40.0390625,11.71875
1,1734117509136.0312,-12.6953125,-53.22265625,-39.0625,22.94921875
2,1734117509139.9375,-15.625,-55.6640625,-35.64453125,29.78515625
3,1734117509143.8438,-16.6015625,-51.26953125,-32.2265625,24.4140625
4,1734117509147.75,-26.3671875,-53.22265625,-32.71484375,17.08984375
5,1734117509151.6562,-24.4140625,-60.546875,-34.66796875,13.671875
6,1734117509155.5625,-27.83203125,-59.08203125,-36.1328125,1.46484375
7,1734117509159.4688,-29.78515625,-55.6640625,-38.0859375,0.9765625
8,1734117509163.375,-35.64453125,-55.6640625,-42.48046875,-6.34765625
9,1734117509167.2812,-36.62109375,-55.17578125,-43.45703125,-28.80859375
10,1734117509171.1875,-41.015625,-57.6171875,-37.109375,-18.06640625
11,1734117509175.0938,-40.52734375,-59.08203125,-35.64453125,-13.18359375
0,1734117509179,-32.2265625,-53.7109375,-33.69140625,-18.5546875
1,1734117509182.9062,-39.0625,-50.78125,-30.2734375,-12.20703125
2,1734117509186.8125,-33.203125,-55.17578125,-32.71484375,-1.46484375
3,1734117509190.7188,-24.90234375,-59.5703125,-32.71484375,6.34765625
4,1734117509194.625,-26.85546875,-58.10546875,-29.78515625,4.39453125
5,1734117509198.5312,-28.80859375,-53.7109375,-32.2265625,0.48828125
6,1734117509202.4375,-28.80859375,-54.19921875,-36.62109375,-0.9765625
7,1734117509206.3438,-20.5078125,-56.15234375,-30.76171875,6.8359375
8,1734117509210.25,-10.25390625,-51.7578125,-29.78515625,8.7890625
9,1734117509214.1562,-14.16015625,-52.734375,-31.73828125,4.39453125
10,1734117509218.0625,-13.671875,-53.22265625,-28.3203125,12.20703125
11,1734117509221.9688,-4.8828125,-51.7578125,-29.296875,21.484375
0,1734117509225.875,-8.30078125,-59.08203125,-34.66796875,14.16015625
1,1734117509229.7812,-9.765625,-57.6171875,-36.62109375,14.16015625
2,1734117509233.6875,-15.13671875,-48.33984375,-35.64453125,15.13671875
3,1734117509237.5938,-15.13671875,-51.7578125,-33.203125,8.30078125
4,1734117509241.5,-10.25390625,-57.12890625,-26.3671875,4.8828125
5,1734117509245.4062,-19.04296875,-57.6171875,-20.99609375,1.953125
6,1734117509249.3125,-25.390625,-54.19921875,-24.4140625,1.953125
7,1734117509253.2188,-19.04296875,-49.31640625,-28.3203125,-1.953125
8,1734117509257.125,-20.5078125,-55.17578125,-35.15625,-7.8125
9,1734117509261.0312,-19.04296875,-60.05859375,-35.64453125,-11.71875
10,1734117509264.9375,-19.04296875,-51.7578125,-33.203125,-7.32421875
11,1734117509268.8438,-20.99609375,-51.7578125,-36.1328125,-8.30078125
0,1734117509272.75,-23.92578125,-49.31640625,-34.1796875,-18.5546875
1,1734117509276.6562,-35.64453125,-49.31640625,-29.78515625,-17.578125
2,1734117509280.5625,-28.3203125,-56.640625,-28.3203125,-16.11328125
3,1734117509284.4688,-25.390625,-58.10546875,-38.57421875,-20.99609375
4,1734117509288.375,-29.78515625,-56.640625,-41.9921875,-16.6015625
5,1734117509292.2812,-22.94921875,-59.08203125,-32.71484375,-0.48828125
6,1734117509296.1875,-13.18359375,-56.640625,-29.296875,6.8359375
7,1734117509300.0938,-9.765625,-52.734375,-27.34375,-0.9765625
8,1734117509304,6.34765625,-53.22265625,-23.92578125,-4.39453125
9,1734117509307.9062,8.30078125,-53.7109375,-23.92578125,10.7421875
10,1734117509311.8125,-5.859375,-57.12890625,-32.71484375,18.06640625
11,1734117509315.7188,-4.39453125,-56.15234375,-38.0859375,7.32421875
0,1734117509319.625,-5.859375,-49.31640625,-34.1796875,1.46484375
1,1734117509323.5312,-4.39453125,-47.36328125,-33.69140625,-1.46484375
2,1734117509327.4375,4.39453125,-55.6640625,-29.78515625,7.32421875
3,1734117509331.3438,3.41796875,-55.17578125,-28.80859375,9.765625
4,1734117509335.25,-5.859375,-53.22265625,-31.73828125,11.71875
5,1734117509339.1562,-0.9765625,-51.26953125,-29.296875,20.5078125
6,1734117509343.0625,2.9296875,-50.29296875,-30.76171875,10.7421875
7,1734117509346.9688,1.46484375,-48.828125,-34.1796875,13.671875
8,1734117509350.875,3.41796875,-45.8984375,-33.203125,21.97265625
9,1734117509354.7812,9.27734375,-44.43359375,-27.83203125,19.53125
10,1734117509358.6875,15.625,-46.875,-25.390625,22.4609375
11,1734117509362.5938,6.34765625,-42.96875,-30.2734375,21.484375
0,1734117509366.5,-4.8828125,-40.52734375,-33.69140625,17.08984375
1,1734117509370.4062,-13.18359375,-48.33984375,-31.73828125,14.16015625
2,1734117509374.3125,-23.92578125,-54.6875,-31.73828125,7.8125
3,1734117509378.2188,-27.34375,-54.19921875,-29.296875,10.7421875
4,1734117509382.125,-25.390625,-48.33984375,-23.92578125,9.27734375
5,1734117509386.0312,-28.80859375,-50.29296875,-26.3671875,10.25390625
6,1734117509389.9375,-28.3203125,-54.6875,-27.83203125,7.32421875
7,1734117509393.8438,-34.66796875,-55.17578125,-28.80859375,-14.16015625
8,1734117509397.75,-41.015625,-54.19921875,-31.73828125,-15.13671875
9,1734117509401.6562,-40.52734375,-54.19921875,-32.2265625,-6.8359375
10,1734117509405.5625,-55.17578125,-57.12890625,-37.109375,-16.6015625
11,1734117509409.4688,-50.78125,-56.15234375,-35.64453125,-10.25390625
0,1734117509413.375,-39.55078125,-56.15234375,-26.3671875,1.953125
1,1734117509417.2812,-38.57421875,-59.5703125,-27.83203125,-4.8828125
2,1734117509421.1875,-33.69140625,-61.5234375,-36.62109375,-15.625
3,1734117509425.0938,-34.1796875,-62.01171875,-27.83203125,-4.8828125
4,1734117509429,-31.25,-61.03515625,-16.6015625,12.6953125
5,1734117509432.9062,-18.06640625,-55.6640625,-20.99609375,18.06640625
6,1734117509436.8125,-9.765625,-54.19921875,-29.78515625,11.71875
7,1734117509440.7188,-11.71875,-55.6640625,-29.296875,11.71875
8,1734117509444.625,-8.7890625,-53.7109375,-25.390625,27.34375
9,1734117509448.5312,1.46484375,-50.29296875,-28.3203125,21.97265625
10,1734117509452.4375,7.8125,-50.78125,-33.69140625,19.53125
11,1734117509456.3438,10.7421875,-56.15234375,-33.69140625,30.76171875
0,1734117509460.25,-1.46484375,-59.08203125,-32.2265625,23.92578125
1,1734117509464.1562,-9.27734375,-60.546875,-29.296875,24.4140625
2,1734117509468.0625,-4.8828125,-57.6171875,-30.76171875,22.94921875
3,1734117509471.9688,-2.44140625,-56.640625,-31.25,16.6015625
4,1734117509475.875,0,-52.734375,-29.296875,11.71875
5,1734117509479.7812,0.48828125,-49.31640625,-31.73828125,6.34765625
6,1734117509483.6875,-4.8828125,-49.31640625,-33.203125,-1.46484375
7,1734117509487.5938,-19.04296875,-49.8046875,-28.3203125,0.9765625
8,1734117509491.5,-17.578125,-51.7578125,-25.390625,14.16015625
9,1734117509495.4062,-18.06640625,-52.734375,-28.80859375,5.859375
10,1734117509499.3125,-20.5078125,-54.19921875,-30.2734375,-4.39453125
11,1734117509503.2188,-15.625,-54.6875,-33.69140625,-4.39453125
0,1734117509507.125,-17.578125,-52.24609375,-35.64453125,-12.6953125
1,1734117509511.0312,-17.08984375,-55.17578125,-32.71484375,-26.3671875
2,1734117509514.9375,-23.4375,-56.640625,-35.15625,-37.109375
3,1734117509518.8438,-36.62109375,-57.6171875,-36.62109375,-35.64453125
4,1734117509522.75,-41.9921875,-61.03515625,-34.1796875,-29.296875
5,1734117509526.6562,-38.57421875,-62.5,-32.2265625,-24.4140625
6,1734117509530.5625,-35.15625,-63.96484375,-33.69140625,-22.94921875
7,1734117509534.4688,-37.109375,-61.5234375,-39.55078125,-11.71875
8,1734117509538.375,-36.62109375,-62.5,-42.48046875,-9.765625
9,1734117509542.2812,-33.203125,-62.01171875,-39.0625,-18.5546875
10,1734117509546.1875,-15.13671875,-56.15234375,-35.64453125,-6.34765625
11,1734117509550.0938,-12.6953125,-54.19921875,-37.59765625,-1.46484375
0,1734117509554,-25.390625,-55.17578125,-36.1328125,-9.27734375
1,1734117509557.9062,-35.15625,-60.05859375,-36.62109375,-10.7421875
2,1734117509561.8125,-36.62109375,-64.453125,-39.0625,-9.765625
3,1734117509565.7188,-34.1796875,-68.84765625,-36.62109375,-7.32421875
4,1734117509569.625,-21.484375,-67.3828125,-32.71484375,-4.39453125
5,1734117509573.5312,-12.6953125,-58.10546875,-30.2734375,-0.9765625
6,1734117509577.4375,-13.671875,-60.05859375,-33.69140625,1.46484375
7,1734117509581.3438,-12.6953125,-62.01171875,-31.25,8.30078125
8,1734117509585.25,-24.4140625,-60.05859375,-28.3203125,4.39453125
9,1734117509589.1562,-25.87890625,-59.5703125,-29.78515625,-1.46484375
10,1734117509593.0625,-20.5078125,-59.5703125,-31.73828125,4.39453125
11,1734117509596.9688,-24.4140625,-59.08203125,-30.76171875,4.8828125
0,1734117509600.875,-23.4375,-55.17578125,-29.296875,-10.25390625
1,1734117509604.7812,-21.97265625,-53.22265625,-28.80859375,-14.16015625
2,1734117509608.6875,-24.90234375,-56.640625,-30.76171875,-3.41796875
3,1734117509612.5938,-32.2265625,-62.98828125,-34.66796875,-19.53125
4,1734117509616.5,-37.59765625,-60.05859375,-37.109375,-30.2734375
5,1734117509620.4062,-34.66796875,-54.6875,-37.109375,-16.6015625
6,1734117509624.3125,-31.73828125,-57.6171875,-30.2734375,-0.9765625
7,1734117509628.2188,-36.1328125,-62.01171875,-31.73828125,-10.25390625
8,1734117509632.125,-34.66796875,-60.05859375,-38.57421875,-23.4375
9,1734117509636.0312,-25.87890625,-58.59375,-35.64453125,-18.06640625
10,1734117509639.9375,-21.97265625,-57.12890625,-29.296875,-16.11328125
11,1734117509643.8438,-23.92578125,-58.59375,-28.3203125,-9.765625
0,1734117509647.75,-21.484375,-55.6640625,-32.2265625,-15.13671875
1,1734117509651.6562,-16.11328125,-53.22265625,-27.83203125,-13.671875
2,1734117509655.5625,-11.23046875,-55.6640625,-27.34375,-3.41796875
3,1734117509659.4688,-16.6015625,-52.24609375,-27.34375,-2.44140625
4,1734117509663.375,-28.3203125,-55.6640625,-30.2734375,-5.37109375
5,1734117509667.2812,-26.3671875,-59.5703125,-30.2734375,-5.859375
6,1734117509671.1875,-21.484375,-57.6171875,-26.85546875,-2.44140625
7,1734117509675.0938,-20.5078125,-56.15234375,-31.73828125,-11.23046875
8,1734117509679,-13.18359375,-56.640625,-33.69140625,-13.671875
9,1734117509682.9062,-9.765625,-55.17578125,-32.2265625,-4.8828125
10,1734117509686.8125,-7.32421875,-56.640625,-34.1796875,-8.7890625
11,1734117509690.7188,-3.90625,-57.6171875,-39.0625,-19.04296875
0,1734117509694.625,-12.20703125,-59.08203125,-39.55078125,-21.484375
1,1734117509698.5312,-15.625,-63.4765625,-37.59765625,-26.3671875
2,1734117509702.4375,-7.8125,-57.12890625,-35.64453125,-21.97265625
3,1734117509706.3438,-7.8125,-54.6875,-37.59765625,-19.04296875
4,1734117509710.25,-12.6953125,-61.03515625,-38.0859375,-19.04296875
5,1734117509714.1562,-3.41796875,-61.03515625,-37.109375,-13.671875
6,1734117509718.0625,-1.953125,-57.12890625,-35.64453125,-14.16015625
7,1734117509721.9688,-15.625,-52.734375,-30.76171875,-23.92578125
8,1734117509725.875,-29.296875,-58.10546875,-31.73828125,-33.69140625
9,1734117509729.7812,-27.34375,-59.5703125,-33.203125,-26.3671875
10,1734117509733.6875,-18.5546875,-57.12890625,-32.71484375,-29.78515625
11,1734117509737.5938,-16.11328125,-52.24609375,-33.203125,-36.62109375
0,1734117509741.5,-5.37109375,-46.875,-32.2265625,-25.390625
1,1734117509745.4062,-2.44140625,-48.33984375,-31.25,-16.6015625
2,1734117509749.3125,-10.25390625,-53.7109375,-34.1796875,-22.94921875
3,1734117509753.2188,-7.32421875,-56.15234375,-41.50390625,-25.390625
4,1734117509757.125,2.44140625,-50.78125,-36.62109375,-13.18359375
5,1734117509761.0312,0.48828125,-46.38671875,-29.78515625,-6.8359375
6,1734117509764.9375,-3.90625,-49.31640625,-34.1796875,-18.06640625
7,1734117509768.8438,-11.23046875,-49.31640625,-36.1328125,-26.85546875
8,1734117509772.75,-13.671875,-48.828125,-33.69140625,-20.99609375
9,1734117509776.6562,-5.37109375,-50.78125,-32.2265625,-7.32421875
10,1734117509780.5625,-2.9296875,-54.19921875,-38.57421875,-20.5078125
11,1734117509784.4688,3.41796875,-54.19921875,-39.55078125,-23.4375
0,1734117509788.375,-0.48828125,-52.734375,-33.69140625,-7.8125
1,1734117509792.2812,-10.25390625,-49.8046875,-31.73828125,-12.6953125
2,1734117509796.1875,-10.25390625,-49.31640625,-32.2265625,-11.71875
3,1734117509800.0938,-9.27734375,-54.19921875,-32.71484375,-11.71875
4,1734117509804,-16.11328125,-50.78125,-28.80859375,-13.671875
5,1734117509807.9062,-20.5078125,-45.41015625,-26.85546875,-17.08984375
6,1734117509811.8125,-16.11328125,-51.26953125,-32.2265625,-22.4609375
7,1734117509815.7188,-20.01953125,-58.10546875,-35.64453125,-23.92578125
8,1734117509819.625,-19.04296875,-61.5234375,-34.66796875,-16.6015625
9,1734117509823.5312,-21.484375,-57.12890625,-32.2265625,-8.7890625
10,1734117509827.4375,-33.69140625,-58.59375,-35.15625,-18.5546875
11,1734117509831.3438,-32.71484375,-61.5234375,-32.2265625,-19.04296875
0,1734117509835.25,-33.203125,-62.01171875,-31.25,-18.5546875
1,1734117509839.1562,-41.9921875,-62.5,-37.109375,-28.80859375
2,1734117509843.0625,-33.203125,-62.01171875,-35.64453125,-26.3671875
3,1734117509846.9688,-24.90234375,-64.453125,-33.203125,-21.484375
4,1734117509850.875,-30.2734375,-59.5703125,-27.83203125,-12.6953125
5,1734117509854.7812,-28.3203125,-57.12890625,-28.3203125,-9.27734375
6,1734117509858.6875,-28.3203125,-58.59375,-38.57421875,-18.06640625
7,1734117509862.5938,-29.296875,-49.8046875,-33.69140625,-17.08984375
8,1734117509866.5,-12.6953125,-42.48046875,-24.4140625,1.46484375
9,1734117509870.4062,-6.8359375,-44.43359375,-31.73828125,-6.8359375
10,1734117509874.3125,-20.99609375,-53.22265625,-34.1796875,-19.53125
11,1734117509878.2188,-27.83203125,-59.5703125,-34.66796875,-15.13671875
0,1734117509882.125,-24.90234375,-58.59375,-37.59765625,-16.11328125
1,1734117509886.0312,-17.578125,-55.17578125,-32.71484375,-10.7421875
2,1734117509889.9375,-8.7890625,-57.12890625,-32.71484375,-7.32421875
3,1734117509893.8438,-1.953125,-57.12890625,-33.69140625,-12.6953125
4,1734117509897.75,-12.6953125,-54.19921875,-34.66796875,-15.625
5,1734117509901.6562,-18.06640625,-56.640625,-36.1328125,-12.20703125
6,1734117509905.5625,-21.484375,-59.5703125,-31.73828125,-4.8828125
7,1734117509909.4688,-26.85546875,-62.98828125,-34.66796875,-9.27734375
8,1734117509913.375,-21.97265625,-63.4765625,-35.15625,-19.04296875
9,1734117509917.2812,-20.01953125,-57.6171875,-37.109375,-29.78515625
10,1734117509921.1875,-25.390625,-56.15234375,-34.66796875,-30.76171875
11,1734117509925.0938,-30.2734375,-61.5234375,-32.2265625,-29.296875
0,1734117509929,-34.1796875,-66.40625,-39.0625,-33.203125
1,1734117509932.9062,-36.1328125,-66.40625,-35.64453125,-30.2734375
2,1734117509936.8125,-40.52734375,-63.4765625,-33.203125,-30.76171875
3,1734117509940.7188,-38.57421875,-62.01171875,-29.296875,-20.01953125
4,1734117509944.625,-27.34375,-57.6171875,-24.4140625,-16.6015625
5,1734117509948.5312,-31.73828125,-56.15234375,-26.3671875,-30.2734375
6,1734117509952.4375,-38.0859375,-60.546875,-28.80859375,-24.4140625
7,1734117509956.3438,-36.62109375,-61.5234375,-26.85546875,-8.7890625
8,1734117509960.25,-21.97265625,-59.5703125,-30.76171875,-5.859375
9,1734117509964.1562,-12.6953125,-54.19921875,-38.57421875,-9.27734375
10,1734117509968.0625,-18.5546875,-50.78125,-36.1328125,-9.27734375
11,1734117509971.9688,-15.13671875,-53.7109375,-28.3203125,-2.44140625
0,1734117509975.875,-10.25390625,-53.22265625,-24.90234375,-0.48828125
1,1734117509979.7812,-8.30078125,-53.22265625,-23.92578125,-3.90625
2,1734117509983.6875,-11.23046875,-53.7109375,-24.90234375,-0.48828125
3,1734117509987.5938,-13.18359375,-55.6640625,-25.390625,-0.9765625
4,1734117509991.5,-8.30078125,-50.29296875,-26.3671875,-5.859375
5,1734117509995.4062,-0.48828125,-49.8046875,-27.83203125,-4.39453125
6,1734117509999.3125,5.859375,-47.8515625,-28.3203125,-4.39453125
7,1734117510003.2188,12.20703125,-44.921875,-36.62109375,-13.18359375
8,1734117510007.125,8.7890625,-52.734375,-47.8515625,-24.4140625
9,1734117510011.0312,11.71875,-54.19921875,-42.48046875,-25.390625
10,1734117510014.9375,8.7890625,-55.6640625,-34.66796875,-24.4140625
11,1734117510018.8438,-18.06640625,-59.5703125,-37.59765625,-31.73828125
0,1734117510022.75,-27.83203125,-61.5234375,-36.62109375,-25.87890625
1,1734117510026.6562,-27.83203125,-59.5703125,-37.109375,-15.13671875
2,1734117510030.5625,-32.71484375,-59.5703125,-32.71484375,-9.765625
3,1734117510034.4688,-36.1328125,-62.5,-29.78515625,-10.7421875
4,1734117510038.375,-29.296875,-62.01171875,-38.0859375,-23.4375
5,1734117510042.2812,-25.390625,-57.12890625,-40.0390625,-17.08984375
6,1734117510046.1875,-24.90234375,-58.10546875,-35.15625,-14.6484375
7,1734117510050.0938,-35.15625,-64.453125,-31.25,-31.25
8,1734117510054,-46.38671875,-64.94140625,-32.2265625,-35.15625
9,1734117510057.9062,-43.9453125,-62.5,-30.76171875,-29.296875
10,1734117510061.8125,-40.52734375,-63.4765625,-31.73828125,-25.87890625
11,1734117510065.7188,-37.59765625,-64.453125,-36.1328125,-35.64453125
0,1734117510069.625,-31.73828125,-62.01171875,-34.1796875,-26.85546875
1,1734117510073.5312,-20.5078125,-53.7109375,-32.71484375,-20.99609375
2,1734117510077.4375,-17.578125,-53.22265625,-31.25,-17.08984375
3,1734117510081.3438,-15.13671875,-54.6875,-26.85546875,-3.41796875
4,1734117510085.25,-3.90625,-51.7578125,-24.4140625,5.859375
5,1734117510089.1562,2.9296875,-48.33984375,-24.4140625,14.16015625
6,1734117510093.0625,-0.48828125,-47.36328125,-24.4140625,14.16015625
7,1734117510096.9688,-1.953125,-44.921875,-24.90234375,9.765625
8,1734117510100.875,2.44140625,-45.8984375,-29.296875,3.41796875
9,1734117510104.7812,0.48828125,-55.6640625,-30.76171875,9.765625
10,1734117510108.6875,-13.18359375,-56.640625,-34.1796875,3.90625
11,1734117510112.5938,-20.01953125,-51.7578125,-34.1796875,-3.41796875
0,1734117510116.5,-12.20703125,-50.29296875,-28.3203125,13.671875
1,1734117510120.4062,-6.8359375,-49.8046875,-24.90234375,18.06640625
2,1734117510124.3125,-14.6484375,-50.78125,-29.78515625,2.9296875
3,1734117510128.2188,-27.83203125,-54.6875,-37.109375,-7.32421875
4,1734117510132.125,-17.578125,-51.7578125,-29.296875,-7.32421875
5,1734117510136.0312,-10.7421875,-44.921875,-26.3671875,-8.30078125
6,1734117510139.9375,-23.92578125,-53.22265625,-33.69140625,-16.6015625
7,1734117510143.8438,-30.76171875,-54.19921875,-30.76171875,-26.3671875
8,1734117510147.75,-33.69140625,-50.78125,-24.4140625,-13.18359375
9,1734117510151.6562,-30.76171875,-55.17578125,-25.390625,-2.9296875
10,1734117510155.5625,-30.2734375,-53.7109375,-31.25,-12.20703125
11,1734117510159.4688,-35.15625,-45.8984375,-28.80859375,-18.06640625
0,1734117510163.375,-41.50390625,-52.24609375,-28.3203125,-32.2265625
1,1734117510167.2812,-51.26953125,-61.5234375,-32.71484375,-40.0390625
2,1734117510171.1875,-49.8046875,-57.6171875,-32.2265625,-39.0625
3,1734117510175.0938,-49.31640625,-55.6640625,-22.94921875,-31.73828125
4,1734117510179,-46.38671875,-56.15234375,-19.53125,-25.390625
5,1734117510182.9062,-35.15625,-53.7109375,-23.92578125,-30.2734375
6,1734117510186.8125,-26.3671875,-50.78125,-24.4140625,-20.01953125
7,1734117510190.7188,-13.18359375,-53.7109375,-26.3671875,-4.39453125
8,1734117510194.625,-12.20703125,-57.6171875,-25.87890625,2.44140625
9,1734117510198.5312,-27.34375,-61.5234375,-33.203125,-6.34765625
10,1734117510202.4375,-21.484375,-61.5234375,-35.64453125,-7.8125
11,1734117510206.3438,-3.90625,-58.59375,-26.85546875,4.39453125
0,1734117510210.25,-0.48828125,-55.6640625,-25.87890625,8.30078125
1,1734117510214.1562,4.39453125,-56.15234375,-26.85546875,9.27734375
2,1734117510218.0625,14.16015625,-57.12890625,-28.80859375,16.11328125
3,1734117510221.9688,8.7890625,-53.22265625,-27.34375,18.06640625
4,1734117510225.875,-4.39453125,-56.640625,-30.76171875,9.765625
5,1734117510229.7812,-10.7421875,-57.12890625,-32.2265625,7.8125
6,1734117510233.6875,-12.6953125,-53.22265625,-30.76171875,4.39453125
7,1734117510237.5938,-4.8828125,-52.734375,-33.69140625,6.34765625
8,1734117510241.5,0.9765625,-49.31640625,-34.66796875,9.27734375
9,1734117510245.4062,-4.39453125,-51.26953125,-41.9921875,-9.765625
10,1734117510249.3125,-10.25390625,-52.734375,-39.55078125,-7.32421875
11,1734117510253.2188,-17.08984375,-54.19921875,-30.2734375,1.46484375
0,1734117510257.125,-23.4375,-61.5234375,-31.73828125,-8.30078125
1,1734117510261.0312,-25.87890625,-58.59375,-34.1796875,-10.25390625
2,1734117510264.9375,-18.06640625,-54.19921875,-35.15625,-10.25390625
3,1734117510268.8438,-22.4609375,-53.22265625,-31.25,-8.7890625
4,1734117510272.75,-40.52734375,-58.10546875,-30.76171875,-15.625
5,1734117510276.6562,-41.50390625,-59.5703125,-33.69140625,-20.99609375
6,1734117510280.5625,-34.66796875,-59.08203125,-39.55078125,-22.4609375
7,1734117510284.4688,-33.203125,-57.6171875,-34.66796875,-12.6953125
8,1734117510288.375,-35.15625,-50.29296875,-33.69140625,-9.765625
9,1734117510292.2812,-33.69140625,-51.7578125,-41.50390625,-22.4609375
10,1734117510296.1875,-32.2265625,-59.5703125,-36.62109375,-26.85546875
11,1734117510300.0938,-45.41015625,-62.01171875,-40.52734375,-33.69140625
0,1734117510304,-47.8515625,-59.5703125,-42.48046875,-25.390625
1,1734117510307.9062,-41.50390625,-57.12890625,-33.69140625,-12.20703125
2,1734117510311.8125,-29.78515625,-57.6171875,-29.78515625,-7.32421875
3,1734117510315.7188,-24.4140625,-57.6171875,-30.2734375,1.46484375
4,1734117510319.625,-21.484375,-59.5703125,-30.2734375,2.44140625
5,1734117510323.5312,-12.6953125,-59.08203125,-26.85546875,0.48828125
6,1734117510327.4375,-12.6953125,-61.5234375,-23.92578125,-4.8828125
7,1734117510331.3438,-5.37109375,-57.12890625,-26.85546875,-1.953125
8,1734117510335.25,-2.44140625,-50.78125,-30.2734375,3.41796875
9,1734117510339.1562,-15.625,-54.6875,-30.76171875,-2.44140625
10,1734117510343.0625,-12.20703125,-53.22265625,-30.2734375,-3.90625
11,1734117510346.9688,-1.46484375,-50.29296875,-32.71484375,-9.27734375
0,1734117510350.875,-4.39453125,-55.6640625,-32.71484375,-20.5078125
1,1734117510354.7812,-10.25390625,-54.6875,-28.3203125,-12.6953125
2,1734117510358.6875,-7.32421875,-51.26953125,-26.85546875,-11.23046875
3,1734117510362.5938,-7.8125,-47.36328125,-26.3671875,-3.90625
4,1734117510366.5,-15.625,-45.8984375,-23.92578125,-1.46484375
5,1734117510370.4062,-8.7890625,-51.7578125,-24.4140625,-4.8828125
6,1734117510374.3125,-5.859375,-52.734375,-24.90234375,-2.9296875
7,1734117510378.2188,-11.23046875,-48.828125,-27.34375,-7.8125
8,1734117510382.125,-7.8125,-48.33984375,-35.15625,-12.6953125
9,1734117510386.0312,-2.9296875,-48.33984375,-40.52734375,-12.6953125
10,1734117510389.9375,-10.7421875,-43.45703125,-34.66796875,-13.671875
11,1734117510393.8438,-25.390625,-44.43359375,-27.34375,-26.3671875
0,1734117510397.75,-28.80859375,-50.78125,-27.34375,-38.0859375
1,1734117510401.6562,-31.73828125,-51.7578125,-31.25,-29.296875
2,1734117510405.5625,-36.1328125,-51.26953125,-37.109375,-28.80859375
3,1734117510409.4688,-35.64453125,-56.640625,-41.015625,-35.64453125
4,1734117510413.375,-35.15625,-52.734375,-35.64453125,-24.4140625
5,1734117510417.2812,-26.85546875,-46.38671875,-26.85546875,-10.7421875
6,1734117510421.1875,-26.85546875,-56.640625,-30.2734375,-8.7890625
7,1734117510425.0938,-26.85546875,-60.546875,-34.66796875,-20.99609375
8,1734117510429,-17.08984375,-50.29296875,-30.76171875,-21.97265625
9,1734117510432.9062,-18.5546875,-48.828125,-23.92578125,-12.6953125
10,1734117510436.8125,-15.13671875,-52.24609375,-25.87890625,-6.34765625
11,1734117510440.7188,-14.16015625,-53.7109375,-32.2265625,-17.08984375
0,1734117510444.625,-17.08984375,-53.7109375,-29.78515625,-24.90234375
1,1734117510448.5312,-13.671875,-51.7578125,-29.296875,-20.5078125
2,1734117510452.4375,-19.04296875,-51.7578125,-33.69140625,-18.5546875
3,1734117510456.3438,-14.16015625,-51.7578125,-38.0859375,-20.01953125
4,1734117510460.25,-3.41796875,-50.29296875,-32.71484375,-8.30078125
5,1734117510464.1562,-8.30078125,-55.6640625,-26.85546875,0
6,1734117510468.0625,-15.625,-55.6640625,-32.2265625,-14.16015625
7,1734117510471.9688,-16.11328125,-48.828125,-33.203125,-25.87890625
8,1734117510475.875,-14.16015625,-52.734375,-33.203125,-29.296875
9,1734117510479.7812,-13.671875,-53.7109375,-33.69140625,-30.2734375
10,1734117510483.6875,-9.765625,-53.7109375,-33.203125,-28.3203125
11,1734117510487.5938,-12.6953125,-46.38671875,-29.78515625,-29.78515625
0,1734117510491.5,-23.4375,-48.33984375,-33.203125,-23.4375
1,1734117510495.4062,-23.4375,-54.19921875,-31.73828125,-18.06640625
2,1734117510499.3125,-33.203125,-56.640625,-28.80859375,-25.390625
3,1734117510503.2188,-35.64453125,-59.08203125,-33.203125,-24.90234375
4,1734117510507.125,-20.99609375,-53.7109375,-30.76171875,-12.20703125
5,1734117510511.0312,-16.6015625,-57.6171875,-32.71484375,-20.99609375
6,1734117510514.9375,-19.04296875,-59.08203125,-31.25,-21.484375
7,1734117510518.8438,-16.11328125,-55.6640625,-29.78515625,-15.13671875
8,1734117510522.75,-17.578125,-56.15234375,-32.71484375,-22.94921875
9,1734117510526.6562,-22.94921875,-54.6875,-32.71484375,-15.13671875
10,1734117510530.5625,-27.34375,-55.6640625,-38.57421875,-16.6015625
11,1734117510534.4688,-24.90234375,-55.17578125,-37.59765625,-28.3203125
0,1734117510538.375,-17.08984375,-58.10546875,-32.71484375,-22.94921875
1,1734117510542.2812,-16.6015625,-52.24609375,-31.73828125,-17.08984375
2,1734117510546.1875,-20.99609375,-44.921875,-25.87890625,-19.53125
3,1734117510550.0938,-15.13671875,-49.8046875,-26.3671875,-17.578125
4,1734117510554,-4.39453125,-53.7109375,-27.83203125,-4.39453125
5,1734117510557.9062,-10.7421875,-53.22265625,-30.76171875,-0.9765625
6,1734117510561.8125,-14.6484375,-51.7578125,-28.80859375,0
7,1734117510565.7188,-4.8828125,-51.26953125,-26.3671875,6.34765625
8,1734117510569.625,-4.39453125,-51.26953125,-27.34375,5.37109375
9,1734117510573.5312,-13.671875,-52.734375,-26.85546875,-0.9765625
10,1734117510577.4375,-23.4375,-57.6171875,-33.69140625,-15.13671875
11,1734117510581.3438,-18.5546875,-59.08203125,-32.2265625,-9.765625
0,1734117510585.25,-8.7890625,-55.17578125,-27.34375,-2.44140625
1,1734117510589.1562,-9.27734375,-53.22265625,-29.296875,-5.37109375
2,1734117510593.0625,-10.25390625,-49.31640625,-31.25,-0.9765625
3,1734117510596.9688,-15.13671875,-48.828125,-31.73828125,-0.9765625
4,1734117510600.875,-9.765625,-53.7109375,-31.73828125,-4.39453125
5,1734117510604.7812,-12.6953125,-52.24609375,-35.15625,-4.8828125
6,1734117510608.6875,-18.06640625,-49.8046875,-41.50390625,-7.8125
7,1734117510612.5938,-18.06640625,-45.8984375,-36.1328125,0
8,1734117510616.5,-19.53125,-43.45703125,-32.2265625,-3.41796875
9,1734117510620.4062,-20.5078125,-49.8046875,-40.0390625,-25.390625
10,1734117510624.3125,-21.97265625,-53.7109375,-36.62109375,-33.69140625
11,1734117510628.2188,-31.73828125,-56.15234375,-32.71484375,-24.4140625
0,1734117510632.125,-34.66796875,-57.12890625,-35.15625,-17.08984375
1,1734117510636.0312,-28.3203125,-55.17578125,-32.2265625,-25.390625
2,1734117510639.9375,-36.1328125,-55.17578125,-28.3203125,-32.2265625
3,1734117510643.8438,-33.203125,-56.15234375,-30.76171875,-29.78515625
4,1734117510647.75,-23.4375,-55.6640625,-31.73828125,-22.4609375
5,1734117510651.6562,-24.4140625,-55.17578125,-32.71484375,-19.53125
6,1734117510655.5625,-28.3203125,-52.734375,-33.69140625,-15.625
7,1734117510659.4688,-19.53125,-50.29296875,-27.83203125,-9.27734375
8,1734117510663.375,-14.6484375,-53.7109375,-31.25,-3.90625
9,1734117510667.2812,-16.6015625,-53.22265625,-31.73828125,3.41796875
10,1734117510671.1875,-12.6953125,-50.29296875,-28.80859375,6.8359375
11,1734117510675.0938,-5.37109375,-46.875,-30.76171875,13.18359375
0,1734117510679,-2.44140625,-49.8046875,-31.73828125,6.8359375
1,1734117510682.9062,-1.46484375,-53.7109375,-33.69140625,1.46484375
2,1734117510686.8125,-5.859375,-51.7578125,-37.59765625,4.8828125
3,1734117510690.7188,-10.25390625,-54.6875,-41.015625,-1.953125
4,1734117510694.625,-14.16015625,-54.6875,-39.55078125,-4.8828125
5,1734117510698.5312,-19.04296875,-51.26953125,-30.2734375,6.34765625
6,1734117510702.4375,-7.8125,-51.26953125,-30.76171875,11.71875
7,1734117510706.3438,-8.7890625,-46.875,-29.296875,10.25390625
8,1734117510710.25,-14.6484375,-43.45703125,-28.80859375,-8.7890625
9,1734117510714.1562,-11.71875,-46.38671875,-33.203125,-18.5546875
10,1734117510718.0625,-13.671875,-50.78125,-31.25,-8.30078125
11,1734117510721.9688,-13.671875,-51.26953125,-29.78515625,-14.16015625
0,1734117510725.875,-17.578125,-51.7578125,-31.25,-22.4609375
1,1734117510729.7812,-25.87890625,-48.828125,-27.83203125,-18.5546875
2,1734117510733.6875,-34.1796875,-50.78125,-29.78515625,-23.4375
3,1734117510737.5938,-39.0625,-53.7109375,-32.71484375,-33.203125
4,1734117510741.5,-38.0859375,-50.29296875,-30.2734375,-35.64453125
5,1734117510745.4062,-45.41015625,-52.734375,-30.76171875,-27.83203125
6,1734117510749.3125,-47.36328125,-58.10546875,-32.71484375,-18.06640625
7,1734117510753.2188,-43.9453125,-56.15234375,-36.1328125,-24.4140625
8,1734117510757.125,-47.8515625,-51.7578125,-37.109375,-34.1796875
9,1734117510761.0312,-42.48046875,-54.6875,-37.59765625,-26.3671875
10,1734117510764.9375,-38.0859375,-55.6640625,-34.1796875,-11.23046875
11,1734117510768.8438,-28.80859375,-54.19921875,-31.73828125,-7.32421875
0,1734117510772.75,-31.25,-59.5703125,-34.66796875,-7.8125
1,1734117510776.6562,-31.73828125,-62.5,-27.83203125,-3.41796875
2,1734117510780.5625,-33.69140625,-60.05859375,-29.296875,-9.765625
3,1734117510784.4688,-32.2265625,-62.98828125,-37.59765625,-16.6015625
4,1734117510788.375,-16.11328125,-63.4765625,-36.1328125,-8.7890625
5,1734117510792.2812,-11.71875,-56.15234375,-29.296875,2.9296875
6,1734117510796.1875,-13.18359375,-54.6875,-23.92578125,9.765625
7,1734117510800.0938,-13.671875,-62.01171875,-34.1796875,-6.34765625
8,1734117510804,-8.7890625,-55.6640625,-37.109375,-13.671875
9,1734117510807.9062,-13.671875,-51.26953125,-33.69140625,-2.44140625
10,1734117510811.8125,-9.27734375,-55.17578125,-33.69140625,-0.9765625
11,1734117510815.7188,-6.34765625,-52.24609375,-32.71484375,-10.7421875
0,1734117510819.625,-16.6015625,-51.26953125,-33.203125,-12.6953125
1,1734117510823.5312,-14.6484375,-54.19921875,-33.69140625,-12.20703125
2,1734117510827.4375,-9.27734375,-52.734375,-31.73828125,-6.34765625
3,1734117510831.3438,-11.71875,-49.8046875,-31.73828125,-9.27734375
4,1734117510835.25,-19.53125,-53.22265625,-39.55078125,-7.8125
5,1734117510839.1562,-14.16015625,-56.640625,-43.45703125,-7.8125
6,1734117510843.0625,-20.5078125,-56.640625,-39.55078125,-22.4609375
7,1734117510846.9688,-31.25,-53.22265625,-37.109375,-31.73828125
8,1734117510850.875,-31.25,-52.24609375,-36.62109375,-36.1328125
9,1734117510854.7812,-24.90234375,-53.7109375,-32.71484375,-32.71484375
10,1734117510858.6875,-28.80859375,-52.24609375,-32.71484375,-32.71484375
11,1734117510862.5938,-31.25,-46.38671875,-33.69140625,-39.0625
0,1734117510866.5,-26.3671875,-46.875,-33.203125,-38.57421875
1,1734117510870.4062,-22.94921875,-51.7578125,-32.71484375,-36.1328125
2,1734117510874.3125,-15.625,-50.29296875,-35.64453125,-42.96875
3,1734117510878.2188,-4.8828125,-51.7578125,-34.66796875,-43.45703125
4,1734117510882.125,7.32421875,-51.26953125,-33.203125,-35.15625
5,1734117510886.0312,1.46484375,-45.8984375,-33.203125,-34.1796875
6,1734117510889.9375,-6.8359375,-48.33984375,-34.1796875,-35.64453125
7,1734117510893.8438,-5.859375,-49.8046875,-29.78515625,-28.80859375
8,1734117510897.75,-16.11328125,-53.7109375,-27.83203125,-14.6484375
9,1734117510901.6562,-27.34375,-58.10546875,-28.3203125,-2.44140625
10,1734117510905.5625,-28.80859375,-57.12890625,-32.71484375,-5.859375
11,1734117510909.4688,-16.6015625,-50.29296875,-34.66796875,-9.765625
0,1734117510913.375,-16.11328125,-46.38671875,-35.64453125,-3.90625
1,1734117510917.2812,-14.16015625,-48.828125,-37.59765625,-12.20703125
2,1734117510921.1875,-10.7421875,-53.22265625,-35.15625,-25.87890625
3,1734117510925.0938,-17.578125,-54.19921875,-38.57421875,-24.4140625
4,1734117510929,-10.25390625,-51.26953125,-35.64453125,-20.5078125
5,1734117510932.9062,-12.6953125,-54.6875,-35.64453125,-21.484375
6,1734117510936.8125,-7.8125,-60.05859375,-41.9921875,-24.90234375
7,1734117510940.7188,-9.27734375,-59.08203125,-41.015625,-19.04296875
8,1734117510944.625,-25.87890625,-56.15234375,-35.15625,-13.671875
9,1734117510948.5312,-10.25390625,-54.19921875,-34.1796875,-22.94921875
10,1734117510952.4375,-11.23046875,-54.6875,-38.57421875,-28.80859375
11,1734117510956.3438,-25.87890625,-55.6640625,-36.62109375,-25.87890625
0,1734117510960.25,-31.25,-58.10546875,-34.1796875,-25.390625
1,1734117510964.1562,-34.66796875,-62.01171875,-36.62109375,-28.80859375
2,1734117510968.0625,-26.3671875,-63.96484375,-36.1328125,-29.296875
3,1734117510971.9688,-19.53125,-63.4765625,-35.15625,-26.3671875
4,1734117510975.875,-31.25,-61.5234375,-39.0625,-29.296875
5,1734117510979.7812,-40.0390625,-57.12890625,-41.015625,-33.69140625
6,1734117510983.6875,-35.64453125,-55.17578125,-38.57421875,-32.71484375
7,1734117510987.5938,-29.78515625,-57.12890625,-30.2734375,-24.90234375
8,1734117510991.5,-20.99609375,-56.640625,-26.85546875,-17.08984375
9,1734117510995.4062,-10.25390625,-53.22265625,-35.15625,-24.90234375
10,1734117510999.3125,-15.13671875,-54.6875,-40.52734375,-27.34375
11,1734117511003.2188,-20.01953125,-62.01171875,-35.64453125,-25.87890625
0,1734117511007.125,-9.27734375,-59.5703125,-30.76171875,-19.04296875
1,1734117511011.0312,-3.90625,-55.6640625,-30.76171875,-8.30078125
2,1734117511014.9375,-5.859375,-55.6640625,-30.2734375,-5.37109375
3,1734117511018.8438,-2.44140625,-57.6171875,-30.76171875,2.44140625
4,1734117511022.75,-7.32421875,-63.4765625,-40.52734375,-3.90625
5,1734117511026.6562,-13.671875,-62.5,-42.48046875,-16.6015625
6,1734117511030.5625,-12.20703125,-54.6875,-34.66796875,-14.6484375
7,1734117511034.4688,-5.859375,-49.31640625,-33.69140625,0
8,1734117511038.375,-5.859375,-48.33984375,-38.57421875,-5.37109375
9,1734117511042.2812,-3.90625,-50.78125,-39.55078125,-18.06640625
10,1734117511046.1875,1.953125,-52.734375,-35.15625,-10.7421875
11,1734117511050.0938,-18.5546875,-60.05859375,-34.66796875,-13.671875
0,1734117511054,-24.90234375,-64.453125,-42.96875,-24.90234375
1,1734117511057.9062,-13.671875,-61.03515625,-44.921875,-12.20703125
2,1734117511061.8125,-14.16015625,-59.08203125,-36.1328125,-7.8125
3,1734117511065.7188,-16.6015625,-54.6875,-34.66796875,-12.20703125
4,1734117511069.625,-16.11328125,-50.29296875,-39.0625,-12.6953125
5,1734117511073.5312,-15.625,-51.26953125,-34.1796875,-15.13671875
6,1734117511077.4375,-20.5078125,-57.12890625,-26.85546875,-11.23046875
7,1734117511081.3438,-21.97265625,-59.5703125,-28.80859375,-14.6484375
8,1734117511085.25,-27.34375,-59.5703125,-33.203125,-29.296875
9,1734117511089.1562,-28.3203125,-57.12890625,-37.59765625,-37.59765625
10,1734117511093.0625,-24.4140625,-52.734375,-35.15625,-27.83203125
11,1734117511096.9688,-28.80859375,-54.19921875,-30.2734375,-22.94921875
0,1734117511100.875,-31.25,-54.6875,-36.62109375,-36.62109375
1,1734117511104.7812,-24.90234375,-51.7578125,-35.64453125,-38.57421875
2,1734117511108.6875,-23.92578125,-55.17578125,-32.2265625,-26.85546875
3,1734117511112.5938,-16.11328125,-54.6875,-35.15625,-29.78515625
4,1734117511116.5,-12.6953125,-53.7109375,-37.109375,-32.2265625
5,1734117511120.4062,-14.16015625,-55.17578125,-34.66796875,-20.99609375
6,1734117511124.3125,-7.8125,-55.17578125,-29.78515625,-0.9765625
7,1734117511128.2188,-5.37109375,-54.19921875,-24.90234375,4.8828125
8,1734117511132.125,-5.859375,-53.22265625,-28.3203125,-7.32421875
9,1734117511136.0312,-6.8359375,-54.19921875,-28.80859375,8.7890625
10,1734117511139.9375,-2.9296875,-50.78125,-26.3671875,22.4609375
11,1734117511143.8438,-6.34765625,-43.9453125,-30.76171875,11.23046875
0,1734117511147.75,-6.8359375,-45.8984375,-35.64453125,0
1,1734117511151.6562,-14.16015625,-51.7578125,-37.59765625,-1.953125
2,1734117511155.5625,-29.78515625,-54.19921875,-39.0625,-1.953125
3,1734117511159.4688,-18.06640625,-56.15234375,-40.52734375,-8.7890625
4,1734117511163.375,-18.06640625,-53.7109375,-41.015625,-12.20703125
5,1734117511167.2812,-25.87890625,-50.29296875,-35.64453125,0
6,1734117511171.1875,-29.296875,-54.19921875,-35.64453125,3.90625
7,1734117511175.0938,-37.109375,-55.17578125,-37.109375,-9.27734375
8,1734117511179,-29.296875,-48.33984375,-30.76171875,-8.30078125
9,1734117511182.9062,-19.53125,-42.96875,-28.80859375,-1.953125
10,1734117511186.8125,-24.4140625,-44.43359375,-25.87890625,6.34765625
11,1734117511190.7188,-30.76171875,-51.7578125,-32.71484375,-4.8828125
0,1734117511194.625,-25.390625,-51.26953125,-39.0625,-13.671875
1,1734117511198.5312,-24.4140625,-50.78125,-35.64453125,-8.7890625
2,1734117511202.4375,-23.92578125,-55.17578125,-33.203125,-10.7421875
3,1734117511206.3438,-25.390625,-53.22265625,-35.64453125,-18.5546875
4,1734117511210.25,-34.1796875,-54.6875,-34.66796875,-18.5546875
5,1734117511214.1562,-30.2734375,-62.5,-39.55078125,-20.01953125
6,1734117511218.0625,-28.3203125,-60.546875,-42.96875,-29.78515625
7,1734117511221.9688,-27.34375,-55.6640625,-38.57421875,-33.203125
8,1734117511225.875,-21.484375,-52.734375,-38.0859375,-28.3203125
9,1734117511229.7812,-19.53125,-53.22265625,-34.1796875,-20.99609375
10,1734117511233.6875,-21.97265625,-61.03515625,-32.2265625,-27.34375
11,1734117511237.5938,-17.08984375,-58.59375,-31.73828125,-20.5078125
0,1734117511241.5,-12.20703125,-54.19921875,-22.94921875,-8.7890625
1,1734117511245.4062,-16.6015625,-57.6171875,-23.4375,-5.859375
2,1734117511249.3125,-12.20703125,-57.6171875,-29.296875,2.44140625
3,1734117511253.2188,-8.30078125,-49.8046875,-22.4609375,5.859375
4,1734117511257.125,-0.48828125,-45.41015625,-19.53125,3.41796875
5,1734117511261.0312,1.953125,-38.57421875,-23.92578125,2.9296875
6,1734117511264.9375,4.39453125,-39.0625,-26.3671875,11.23046875
7,1734117511268.8438,4.8828125,-45.41015625,-29.296875,8.7890625
8,1734117511272.75,-5.37109375,-50.29296875,-31.73828125,-0.48828125
9,1734117511276.6562,-11.71875,-49.8046875,-29.296875,4.8828125
10,1734117511280.5625,-13.18359375,-45.41015625,-31.73828125,-0.48828125
11,1734117511284.4688,-22.4609375,-47.36328125,-39.55078125,-5.859375
0,1734117511288.375,-13.671875,-47.36328125,-37.109375,-1.953125
1,1734117511292.2812,-4.8828125,-47.8515625,-34.1796875,-1.46484375
2,1734117511296.1875,-11.23046875,-47.8515625,-33.203125,-5.37109375
3,1734117511300.0938,-7.8125,-42.96875,-25.87890625,-6.8359375
4,1734117511304,-16.11328125,-42.96875,-25.390625,-0.48828125
5,1734117511307.9062,-18.5546875,-49.31640625,-30.76171875,0
6,1734117511311.8125,-15.625,-52.734375,-31.73828125,-0.9765625
7,1734117511315.7188,-25.87890625,-53.22265625,-27.34375,-3.41796875
8,1734117511319.625,-30.76171875,-58.59375,-26.85546875,-9.765625
9,1734117511323.5312,-28.3203125,-56.640625,-26.85546875,-8.7890625
10,1734117511327.4375,-24.4140625,-56.15234375,-25.390625,-8.30078125
11,1734117511331.3438,-29.296875,-62.98828125,-27.34375,-15.13671875
0,1734117511335.25,-23.92578125,-57.6171875,-34.1796875,-19.53125
1,1734117511339.1562,-14.16015625,-53.7109375,-34.66796875,-17.08984375
2,1734117511343.0625,-19.04296875,-52.734375,-28.80859375,-14.6484375
3,1734117511346.9688,-13.671875,-44.921875,-25.390625,-7.32421875
4,1734117511350.875,-13.671875,-48.33984375,-24.90234375,9.765625
5,1734117511354.7812,-22.4609375,-53.7109375,-30.76171875,4.8828125
6,1734117511358.6875,-20.01953125,-50.78125,-31.25,-6.34765625
7,1734117511362.5938,-17.08984375,-48.828125,-23.92578125,4.8828125
8,1734117511366.5,-10.7421875,-52.24609375,-25.87890625,5.859375
9,1734117511370.4062,-8.7890625,-52.734375,-30.76171875,-4.8828125
10,1734117511374.3125,-12.6953125,-56.640625,-32.2265625,-11.71875
11,1734117511378.2188,-12.6953125,-59.08203125,-33.203125,-9.765625
0,1734117511382.125,-14.6484375,-59.08203125,-34.1796875,-10.25390625
1,1734117511386.0312,-23.92578125,-63.4765625,-38.0859375,-27.34375
2,1734117511389.9375,-10.25390625,-58.10546875,-32.71484375,-20.5078125
3,1734117511393.8438,-5.859375,-51.7578125,-27.34375,-7.32421875
4,1734117511397.75,-18.5546875,-55.17578125,-30.2734375,-7.32421875
5,1734117511401.6562,-12.6953125,-64.453125,-29.296875,-7.32421875
6,1734117511405.5625,-7.32421875,-60.05859375,-28.3203125,-2.9296875
7,1734117511409.4688,-20.01953125,-55.6640625,-31.25,4.39453125
8,1734117511413.375,-20.01953125,-56.640625,-29.78515625,3.90625
9,1734117511417.2812,-11.23046875,-50.29296875,-29.296875,-5.859375
10,1734117511421.1875,-18.06640625,-52.24609375,-36.1328125,-12.20703125
11,1734117511425.0938,-13.18359375,-54.6875,-40.0390625,-7.8125
0,1734117511429,-14.6484375,-50.78125,-37.109375,-5.859375
1,1734117511432.9062,-20.5078125,-54.19921875,-34.66796875,-6.8359375
2,1734117511436.8125,-19.04296875,-55.17578125,-35.15625,-8.30078125
3,1734117511440.7188,-20.5078125,-52.734375,-35.64453125,-7.8125
4,1734117511444.625,-21.484375,-52.734375,-38.57421875,-10.7421875
5,1734117511448.5312,-20.01953125,-52.734375,-39.0625,-16.11328125
6,1734117511452.4375,-26.85546875,-53.7109375,-34.66796875,-7.8125
7,1734117511456.3438,-26.85546875,-53.7109375,-32.71484375,-1.46484375
8,1734117511460.25,-26.85546875,-57.6171875,-41.015625,-8.30078125
9,1734117511464.1562,-21.97265625,-53.7109375,-35.64453125,-4.39453125
10,1734117511468.0625,-8.7890625,-44.921875,-26.3671875,3.41796875
11,1734117511471.9688,0.9765625,-48.33984375,-30.76171875,5.37109375
0,1734117511475.875,-6.34765625,-50.78125,-30.2734375,3.41796875
1,1734117511479.7812,-17.08984375,-51.7578125,-26.85546875,5.37109375
2,1734117511483.6875,-18.5546875,-53.7109375,-28.80859375,-4.39453125
3,1734117511487.5938,-23.4375,-53.7109375,-32.71484375,-7.32421875
4,1734117511491.5,-23.92578125,-56.640625,-37.59765625,-3.90625
5,1734117511495.4062,-15.13671875,-52.24609375,-35.64453125,-6.34765625
6,1734117511499.3125,-8.30078125,-45.41015625,-26.85546875,0.48828125
7,1734117511503.2188,-8.7890625,-45.8984375,-28.3203125,-4.8828125
8,1734117511507.125,-3.41796875,-46.38671875,-32.2265625,-15.625
9,1734117511511.0312,-3.41796875,-47.36328125,-31.73828125,-10.25390625
10,1734117511514.9375,-5.37109375,-51.26953125,-31.25,-2.44140625
11,1734117511518.8438,-9.765625,-50.78125,-26.3671875,-3.90625
0,1734117511522.75,-14.16015625,-58.59375,-29.78515625,-3.90625
1,1734117511526.6562,-4.8828125,-59.08203125,-30.76171875,-5.859375
2,1734117511530.5625,-14.16015625,-53.7109375,-27.83203125,-10.25390625
3,1734117511534.4688,-15.625,-57.12890625,-29.78515625,-14.16015625
4,1734117511538.375,-11.71875,-59.08203125,-32.2265625,-17.08984375
5,1734117511542.2812,-30.2734375,-60.546875,-32.71484375,-8.7890625
6,1734117511546.1875,-30.2734375,-56.15234375,-33.203125,-14.6484375
7,1734117511550.0938,-26.3671875,-57.6171875,-26.85546875,-26.85546875
8,1734117511554,-37.59765625,-66.40625,-25.87890625,-31.25
9,1734117511557.9062,-33.69140625,-61.5234375,-27.34375,-23.92578125
10,1734117511561.8125,-28.80859375,-58.59375,-25.87890625,-14.6484375
11,1734117511565.7188,-26.85546875,-63.96484375,-33.203125,-28.3203125
0,1734117511569.625,-26.3671875,-64.453125,-33.203125,-33.203125
1,1734117511573.5312,-33.69140625,-56.640625,-31.25,-24.4140625
2,1734117511577.4375,-29.296875,-54.19921875,-32.2265625,-13.671875
3,1734117511581.3438,-20.99609375,-53.7109375,-30.76171875,-12.6953125
4,1734117511585.25,-21.97265625,-50.78125,-31.25,-11.71875
5,1734117511589.1562,-14.6484375,-50.78125,-29.296875,8.30078125
6,1734117511593.0625,-5.859375,-51.26953125,-27.34375,6.8359375
7,1734117511596.9688,-14.6484375,-57.12890625,-29.78515625,-13.18359375
8,1734117511600.875,-6.34765625,-55.17578125,-29.296875,-3.41796875
