index,unixTimestamp,TP9,AF7,AF8,TP10
0,1734036483705.5,-0.48828125,0,0,0
1,1734036483709.4062,0.9765625,0,-3.41796875,-0.48828125
2,1734036483713.3125,2.44140625,-32.2265625,31.73828125,0
3,1734036483717.2188,-15.13671875,70.3125,-107.421875,0.9765625
4,1734036483721.125,81.0546875,-396.484375,409.66796875,-9.27734375
5,1734036483725.0312,60.546875,-1000,385.25390625,9.27734375
6,1734036483728.9375,-152.34375,-992.1875,-399.90234375,9.27734375
7,1734036483732.8438,-4.8828125,-986.328125,-369.140625,-46.38671875
8,1734036483736.75,174.8046875,-1000,-491.69921875,-49.31640625
9,1734036483740.6562,84.47265625,-1000,-237.79296875,1.46484375
10,1734036483744.5625,163.57421875,-1000,104.98046875,-3.90625
11,1734036483748.4688,629.39453125,-1000,62.5,-43.45703125
0,1734036483752.375,996.58203125,-1000,-83.984375,-61.5234375
1,1734036483756.2812,941.40625,-1000,96.6796875,-52.24609375
2,1734036483760.1875,936.03515625,-1000,281.73828125,-18.06640625
3,1734036483764.0938,970.703125,-1000,209.9609375,-40.52734375
4,1734036483768,979.98046875,-1000,137.20703125,-83.49609375
5,1734036483771.9062,927.734375,-1000,206.54296875,-86.42578125
6,1734036483775.8125,895.5078125,-1000,288.0859375,-85.44921875
7,1734036483779.7188,970.21484375,-1000,287.109375,-114.2578125
8,1734036483783.625,974.12109375,-1000,-78.125,-152.83203125
9,1734036483787.5312,967.28515625,-1000,111.81640625,-124.0234375
10,1734036483791.4375,971.19140625,-1000,522.94921875,-88.8671875
11,1734036483795.3438,971.19140625,-1000,340.33203125,-112.3046875
0,1734036483799.25,960.44921875,-1000,334.9609375,-130.859375
1,1734036483803.1562,999.51171875,-1000,437.98828125,-145.99609375
2,1734036483807.0625,854.4921875,-1000,450.68359375,-130.859375
3,1734036483810.9688,794.921875,-1000,465.33203125,-141.11328125
4,1734036483814.875,961.42578125,-1000,451.66015625,-193.84765625
5,1734036483818.7812,999.51171875,-1000,365.234375,-214.84375
6,1734036483822.6875,711.42578125,-1000,421.875,-200.68359375
7,1734036483826.5938,98.14453125,-1000,241.69921875,-182.12890625
8,1734036483830.5,89.84375,-1000,184.08203125,-210.9375
9,1734036483834.4062,711.9140625,-1000,472.16796875,-263.671875
10,1734036483838.3125,999.51171875,-1000,408.69140625,-266.11328125
11,1734036483842.2188,693.84765625,-1000,431.15234375,-217.7734375
0,1734036483846.125,446.2890625,-1000,494.140625,-229.4921875
1,1734036483850.0312,501.953125,-1000,453.125,-308.59375
2,1734036483853.9375,375.9765625,-1000,352.5390625,-289.55078125
3,1734036483857.8438,-44.921875,-1000,378.41796875,-243.1640625
4,1734036483861.75,-260.25390625,-1000,441.40625,-269.53125
5,1734036483865.6562,-101.07421875,-1000,360.3515625,-281.73828125
6,1734036483869.5625,-155.76171875,-1000,212.890625,-292.48046875
7,1734036483873.4688,-853.515625,-1000,123.53515625,-271.97265625
8,1734036483877.375,-1000,-1000,326.66015625,-246.58203125
9,1734036483881.2812,-971.6796875,-1000,423.33984375,-277.83203125
10,1734036483885.1875,-1000,-1000,217.28515625,-302.24609375
11,1734036483889.0938,-995.1171875,-1000,220.703125,-290.52734375
0,1734036483893,-1000,-1000,341.796875,-268.5546875
1,1734036483896.9062,-971.6796875,-1000,371.09375,-271.97265625
2,1734036483900.8125,-859.86328125,-1000,107.91015625,-288.0859375
3,1734036483904.7188,-920.8984375,-1000,56.15234375,-255.859375
4,1734036483908.625,-1000,-1000,356.93359375,-240.234375
5,1734036483912.5312,-997.0703125,-1000,294.43359375,-254.39453125
6,1734036483916.4375,-999.0234375,-1000,-15.13671875,-279.78515625
7,1734036483920.3438,-1000,-1000,-64.94140625,-267.578125
8,1734036483924.25,-1000,-1000,271.484375,-243.65234375
9,1734036483928.1562,-1000,-1000,408.69140625,-239.74609375
10,1734036483932.0625,-1000,-1000,-19.53125,-249.0234375
11,1734036483935.9688,-1000,-1000,-147.4609375,-217.28515625
0,1734036483939.875,-1000,-1000,374.51171875,-211.9140625
1,1734036483943.7812,-1000,-1000,325.1953125,-242.1875
2,1734036483947.6875,-1000,-1000,209.9609375,-219.23828125
3,1734036483951.5938,-995.60546875,-1000,230.95703125,-241.2109375
4,1734036483955.5,-1000,-1000,272.4609375,-232.91015625
5,1734036483959.4062,-948.2421875,-1000,284.66796875,-175.78125
6,1734036483963.3125,-959.47265625,-1000,-99.609375,-168.9453125
7,1734036483967.2188,-909.1796875,-1000,-69.82421875,-209.47265625
8,1734036483971.125,-402.34375,-1000,391.11328125,-200.68359375
9,1734036483975.0312,-442.87109375,-1000,232.91015625,-155.2734375
10,1734036483978.9375,-567.87109375,-1000,203.61328125,-138.18359375
11,1734036483982.8438,273.92578125,-1000,306.640625,-152.83203125
0,1734036483986.75,753.41796875,-1000,281.73828125,-182.12890625
1,1734036483990.6562,281.73828125,-1000,203.61328125,-128.90625
2,1734036483994.5625,-269.04296875,-1000,221.19140625,-65.91796875
3,1734036483998.4688,94.7265625,-1000,324.70703125,-96.19140625
4,1734036484002.375,521.97265625,-1000,225.09765625,-126.953125
5,1734036484006.2812,-258.30078125,-1000,86.9140625,-115.72265625
6,1734036484010.1875,-901.85546875,-1000,126.46484375,-145.5078125
7,1734036484014.0938,-553.7109375,-1000,206.0546875,-156.25
8,1734036484018,194.3359375,-1000,131.34765625,-161.62109375
9,1734036484021.9062,405.76171875,-1000,44.921875,-127.9296875
10,1734036484025.8125,575.1953125,-1000,196.2890625,-99.12109375
11,1734036484029.7188,661.62109375,-1000,304.6875,-125.48828125
0,1734036484033.625,-242.1875,-1000,238.28125,-138.671875
1,1734036484037.5312,-1000,-1000,-251.953125,-99.609375
2,1734036484041.4375,-1000,-1000,-250.48828125,-55.6640625
3,1734036484045.3438,-753.41796875,-1000,337.40234375,-67.3828125
4,1734036484049.25,-495.60546875,-1000,173.828125,-125
5,1734036484053.1562,-500.9765625,-1000,-61.5234375,-148.4375
6,1734036484057.0625,-738.28125,-1000,116.69921875,-104.98046875
7,1734036484060.9688,-963.37890625,-1000,248.53515625,-112.3046875
8,1734036484064.875,-1000,-1000,50.78125,-135.7421875
9,1734036484068.7812,-632.32421875,-1000,-258.7890625,-130.859375
10,1734036484072.6875,-635.25390625,-1000,87.40234375,-102.5390625
11,1734036484076.5938,-836.9140625,-1000,385.25390625,-67.3828125
0,1734036484080.5,-90.33203125,-1000,152.83203125,-74.70703125
1,1734036484084.4062,449.70703125,-1000,110.3515625,-83.0078125
2,1734036484088.3125,571.77734375,-1000,237.3046875,-82.03125
3,1734036484092.2188,660.15625,-1000,256.8359375,-92.7734375
4,1734036484096.125,795.8984375,-1000,179.6875,-107.421875
5,1734036484100.0312,979.98046875,-1000,102.05078125,-168.45703125
6,1734036484103.9375,974.609375,-1000,125.9765625,-206.54296875
7,1734036484107.8438,892.578125,-1000,247.0703125,-158.203125
8,1734036484111.75,921.875,-1000,-64.94140625,-125.48828125
9,1734036484115.6562,981.93359375,-1000,-181.640625,-159.66796875
10,1734036484119.5625,962.890625,-1000,204.58984375,-168.9453125
11,1734036484123.4688,990.234375,-1000,299.8046875,-98.14453125
0,1734036484127.375,813.96484375,-1000,-96.6796875,-59.08203125
1,1734036484131.2812,793.9453125,-1000,-177.24609375,-82.51953125
2,1734036484135.1875,999.51171875,-1000,307.6171875,-135.25390625
3,1734036484139.0938,395.5078125,-1000,209.47265625,-116.2109375
4,1734036484143,-534.1796875,-1000,189.453125,-42.96875
5,1734036484146.9062,-685.05859375,-1000,228.02734375,-69.82421875
6,1734036484150.8125,-221.19140625,-1000,172.8515625,-160.64453125
7,1734036484154.7188,23.92578125,-1000,85.9375,-168.9453125
8,1734036484158.625,-229.98046875,-1000,-51.7578125,-96.19140625
9,1734036484162.5312,-18.06640625,-1000,180.6640625,-62.5
10,1734036484166.4375,572.265625,-1000,323.73046875,-91.30859375
11,1734036484170.3438,714.35546875,-1000,92.28515625,-81.54296875
0,1734036484174.25,234.375,-1000,50.29296875,-62.98828125
1,1734036484178.1562,123.53515625,-1000,191.89453125,-54.19921875
2,1734036484182.0625,675.29296875,-1000,236.328125,-42.48046875
3,1734036484185.9688,938.4765625,-1000,-97.16796875,-50.29296875
4,1734036484189.875,572.75390625,-1000,-188.4765625,-33.69140625
5,1734036484193.7812,152.83203125,-1000,107.421875,-11.71875
6,1734036484197.6875,103.02734375,-1000,106.93359375,-66.40625
7,1734036484201.5938,360.3515625,-1000,-327.63671875,-78.125
8,1734036484205.5,394.53125,-1000,-549.31640625,-18.5546875
9,1734036484209.4062,126.46484375,-999.0234375,55.17578125,-24.4140625
10,1734036484213.3125,55.17578125,-996.58203125,178.22265625,-53.7109375
11,1734036484217.2188,214.35546875,-1000,-106.4453125,-83.49609375
0,1734036484221.125,34.66796875,-1000,-57.12890625,-80.56640625
1,1734036484225.0312,-307.12890625,-994.62890625,153.3203125,-49.31640625
2,1734036484228.9375,-295.8984375,-997.55859375,60.546875,-41.9921875
3,1734036484232.8438,151.3671875,-1000,-188.4765625,-44.43359375
4,1734036484236.75,276.3671875,-1000,-239.2578125,-38.57421875
5,1734036484240.6562,-70.3125,-1000,-209.47265625,-22.4609375
6,1734036484244.5625,-215.8203125,-1000,-274.90234375,4.8828125
7,1734036484248.4688,-99.609375,-996.09375,-463.37890625,22.4609375
8,1734036484252.375,359.86328125,-993.1640625,-234.86328125,-14.16015625
9,1734036484256.2812,361.328125,-891.6015625,96.19140625,-24.4140625
10,1734036484260.1875,-16.11328125,-882.32421875,-17.578125,-2.9296875
11,1734036484264.0938,-22.4609375,-966.796875,-103.515625,0.9765625
0,1734036484268,391.11328125,-961.9140625,27.34375,-39.55078125
1,1734036484271.9062,577.1484375,-975.5859375,41.50390625,-29.78515625
2,1734036484275.8125,315.4296875,-962.890625,-53.22265625,16.6015625
3,1734036484279.7188,333.0078125,-963.37890625,-25.87890625,25.390625
4,1734036484283.625,811.5234375,-991.2109375,16.6015625,-23.92578125
5,1734036484287.5312,891.11328125,-1000,-184.08203125,-72.75390625
6,1734036484291.4375,622.0703125,-998.53515625,-437.01171875,-34.66796875
7,1734036484295.3438,847.65625,-1000,-452.63671875,0.48828125
8,1734036484299.25,999.51171875,-1000,-214.84375,-33.69140625
9,1734036484303.1562,957.51953125,-998.046875,-201.171875,-41.015625
10,1734036484307.0625,971.6796875,-1000,-453.125,8.7890625
11,1734036484310.9688,970.703125,-976.5625,-290.0390625,16.11328125
0,1734036484314.875,970.703125,-951.66015625,202.63671875,-4.8828125
1,1734036484318.7812,970.703125,-995.60546875,37.59765625,2.9296875
2,1734036484322.6875,970.703125,-997.55859375,-208.49609375,33.203125
3,1734036484326.5938,970.703125,-967.28515625,24.4140625,-23.4375
4,1734036484330.5,970.703125,-982.421875,195.3125,-96.6796875
5,1734036484334.4062,970.703125,-1000,-179.19921875,-84.47265625
6,1734036484338.3125,970.703125,-999.51171875,-433.10546875,-45.8984375
7,1734036484342.2188,970.703125,-999.51171875,-68.84765625,-14.16015625
8,1734036484346.125,970.703125,-1000,192.87109375,-5.859375
9,1734036484350.0312,970.703125,-1000,-137.20703125,-29.296875
10,1734036484353.9375,970.703125,-1000,-371.09375,-39.0625
11,1734036484357.8438,970.703125,-1000,60.546875,-8.7890625
0,1734036484361.75,970.703125,-1000,165.0390625,-20.5078125
1,1734036484365.6562,970.703125,-1000,-60.546875,-38.57421875
2,1734036484369.5625,970.703125,-1000,-201.66015625,-52.734375
3,1734036484373.4688,970.703125,-1000,37.59765625,-32.2265625
4,1734036484377.375,970.703125,-1000,104.00390625,-11.23046875
5,1734036484381.2812,970.703125,-1000,-201.66015625,-35.15625
6,1734036484385.1875,970.703125,-1000,-333.49609375,-62.5
7,1734036484389.0938,970.703125,-1000,-285.64453125,-50.29296875
8,1734036484393,972.65625,-1000,-174.8046875,-14.16015625
9,1734036484396.9062,961.42578125,-1000,-415.0390625,3.41796875
10,1734036484400.8125,966.796875,-1000,-582.03125,-20.01953125
11,1734036484404.7188,958.0078125,-1000,-88.8671875,-43.9453125
0,1734036484408.625,502.44140625,-1000,83.0078125,-35.64453125
1,1734036484412.5312,64.94140625,-1000,-155.2734375,-40.52734375
2,1734036484416.4375,117.1875,-1000,-192.3828125,-57.6171875
3,1734036484420.3438,100.5859375,-1000,-104.98046875,-35.64453125
4,1734036484424.25,-362.79296875,-1000,-74.70703125,2.44140625
5,1734036484428.1562,-833.984375,-1000,-219.7265625,-2.9296875
6,1734036484432.0625,-645.99609375,-1000,-278.3203125,-8.30078125
7,1734036484435.9688,-443.84765625,-1000,-128.41796875,1.46484375
8,1734036484439.875,-776.85546875,-1000,-208.49609375,31.25
9,1734036484443.7812,-1000,-1000,-360.83984375,25.390625
10,1734036484447.6875,-762.6953125,-1000,-3.90625,-13.18359375
11,1734036484451.5938,-403.3203125,-1000,88.37890625,-40.52734375
0,1734036484455.5,-720.21484375,-1000,-168.45703125,-31.25
1,1734036484459.4062,-1000,-1000,-204.58984375,8.7890625
2,1734036484463.3125,-990.234375,-1000,50.78125,-16.11328125
3,1734036484467.2188,-958.49609375,-1000,78.61328125,-64.94140625
4,1734036484471.125,-974.609375,-1000,-270.99609375,-41.015625
5,1734036484475.0312,-1000,-1000,-378.90625,-7.32421875
6,1734036484478.9375,-1000,-1000,-164.0625,-9.765625
7,1734036484482.8438,-989.74609375,-1000,-243.1640625,-13.18359375
8,1734036484486.75,-953.125,-1000,-369.62890625,-34.66796875
9,1734036484490.6562,-994.62890625,-1000,-45.41015625,-45.8984375
10,1734036484494.5625,-997.0703125,-1000,174.31640625,-27.83203125
11,1734036484498.4688,-1000,-999.0234375,153.3203125,-29.296875
0,1734036484502.375,-929.6875,-1000,-305.17578125,-73.2421875
1,1734036484506.2812,-708.984375,-995.1171875,-314.453125,-39.55078125
2,1734036484510.1875,-388.18359375,-973.6328125,273.92578125,-0.48828125
3,1734036484514.0938,148.92578125,-990.72265625,154.78515625,-30.2734375
4,1734036484518,685.546875,-1000,-92.28515625,-74.21875
5,1734036484521.9062,988.76953125,-999.0234375,7.32421875,-64.94140625
6,1734036484525.8125,875.48828125,-1000,180.6640625,-3.90625
7,1734036484529.7188,862.79296875,-999.0234375,66.89453125,2.44140625
8,1734036484533.625,983.88671875,-1000,-270.01953125,-42.96875
9,1734036484537.5312,969.23828125,-994.140625,-38.0859375,-29.78515625
10,1734036484541.4375,968.75,-971.6796875,253.41796875,7.32421875
11,1734036484545.3438,971.19140625,-986.81640625,41.015625,-9.27734375
0,1734036484549.25,970.703125,-1000,-22.4609375,-32.71484375
1,1734036484553.1562,970.703125,-1000,129.39453125,-34.1796875
2,1734036484557.0625,970.703125,-992.1875,166.50390625,-22.4609375
3,1734036484560.9688,970.703125,-984.86328125,24.90234375,-16.6015625
4,1734036484564.875,970.703125,-993.1640625,-5.859375,-32.71484375
5,1734036484568.7812,970.703125,-1000,-83.984375,-83.984375
6,1734036484572.6875,970.703125,-1000,-57.12890625,-67.87109375
7,1734036484576.5938,970.703125,-1000,-150.87890625,-18.06640625
8,1734036484580.5,970.703125,-1000,-473.14453125,-41.9921875
9,1734036484584.4062,970.703125,-1000,-73.73046875,-90.8203125
10,1734036484588.3125,970.703125,-1000,169.43359375,-80.56640625
11,1734036484592.2188,970.703125,-1000,-53.7109375,-39.0625
0,1734036484596.125,970.703125,-1000,57.12890625,-39.0625
1,1734036484600.0312,970.21484375,-1000,211.9140625,-98.14453125
2,1734036484603.9375,970.21484375,-1000,38.57421875,-115.234375
3,1734036484607.8438,970.703125,-1000,53.7109375,-54.6875
4,1734036484611.75,970.703125,-1000,162.109375,-47.8515625
5,1734036484615.6562,970.703125,-1000,97.16796875,-83.984375
6,1734036484619.5625,970.703125,-1000,-154.78515625,-104.00390625
7,1734036484623.4688,970.703125,-1000,-366.69921875,-78.125
8,1734036484627.375,970.703125,-1000,-10.7421875,-74.70703125
9,1734036484631.2812,971.6796875,-1000,272.4609375,-107.421875
10,1734036484635.1875,962.40234375,-1000,-51.7578125,-134.765625
11,1734036484639.0938,987.3046875,-1000,-187.01171875,-82.03125
0,1734036484643,916.50390625,-1000,203.61328125,-43.9453125
1,1734036484646.9062,788.0859375,-1000,233.88671875,-95.21484375
2,1734036484650.8125,918.45703125,-1000,-23.92578125,-113.76953125
3,1734036484654.7188,993.65234375,-1000,-6.8359375,-87.890625
4,1734036484658.625,700.68359375,-1000,130.37109375,-70.80078125
5,1734036484662.5312,557.12890625,-1000,71.2890625,-71.77734375
6,1734036484666.4375,837.40234375,-1000,-275.390625,-80.078125
7,1734036484670.3438,999.51171875,-1000,-527.34375,-69.82421875
8,1734036484674.25,677.24609375,-1000,-70.80078125,-39.55078125
9,1734036484678.1562,227.05078125,-1000,197.265625,-35.64453125
10,1734036484682.0625,42.96875,-1000,-272.94921875,-81.0546875
11,1734036484685.9688,57.12890625,-1000,-437.5,-110.83984375
0,1734036484689.875,-223.6328125,-1000,66.40625,-60.05859375
1,1734036484693.7812,-899.4140625,-1000,111.328125,-29.78515625
2,1734036484697.6875,-973.6328125,-1000,-76.66015625,-61.5234375
3,1734036484701.5938,-735.3515625,-1000,-96.19140625,-95.21484375
4,1734036484705.5,-853.02734375,-1000,2.9296875,-79.58984375
5,1734036484709.4062,-1000,-1000,-151.85546875,-31.73828125
6,1734036484713.3125,-982.421875,-1000,-396.97265625,-3.41796875
7,1734036484717.2188,-392.08984375,-1000,-186.5234375,-7.8125
8,1734036484721.125,-435.05859375,-1000,-0.48828125,-16.6015625
9,1734036484725.0312,-1000,-1000,-90.33203125,-5.37109375
10,1734036484728.9375,-1000,-1000,-104.4921875,-14.6484375
11,1734036484732.8438,-987.3046875,-1000,51.26953125,-46.875
0,1734036484736.75,-991.2109375,-1000,-92.7734375,-49.8046875
1,1734036484740.6562,-1000,-1000,-374.51171875,-8.30078125
2,1734036484744.5625,-915.52734375,-1000,-388.671875,24.4140625
3,1734036484748.4688,-580.078125,-1000,-134.27734375,-11.23046875
4,1734036484752.375,-468.75,-1000,-247.55859375,-32.2265625
5,1734036484756.2812,-784.1796875,-1000,-409.1796875,12.20703125
6,1734036484760.1875,-1000,-1000,-312.98828125,41.015625
7,1734036484764.0938,-1000,-1000,-324.70703125,-16.6015625
8,1734036484768,-714.35546875,-1000,-378.90625,-84.47265625
9,1734036484771.9062,-655.2734375,-1000,-586.42578125,-40.0390625
10,1734036484775.8125,-1000,-1000,-563.96484375,27.83203125
11,1734036484779.7188,-1000,-1000,-145.01953125,13.671875
0,1734036484783.625,-971.19140625,-1000,-241.69921875,-47.8515625
1,1734036484787.5312,-987.79296875,-1000,-362.79296875,-52.24609375
2,1734036484791.4375,-1000,-1000,-178.22265625,-25.390625
3,1734036484795.3438,-999.0234375,-1000,-175.78125,-41.9921875
4,1734036484799.25,-1000,-1000,-382.8125,-60.05859375
5,1734036484803.1562,-1000,-1000,-587.40234375,-57.6171875
6,1734036484807.0625,-1000,-1000,-395.5078125,11.23046875
7,1734036484810.9688,-1000,-1000,-97.65625,40.0390625
8,1734036484814.875,-1000,-1000,-310.05859375,21.97265625
9,1734036484818.7812,-1000,-1000,-531.25,3.41796875
10,1734036484822.6875,-1000,-1000,-250.9765625,-2.44140625
11,1734036484826.5938,-1000,-1000,-30.2734375,41.015625
0,1734036484830.5,-1000,-1000,-109.86328125,48.33984375
1,1734036484834.4062,-1000,-1000,-306.15234375,4.8828125
2,1734036484838.3125,-997.0703125,-1000,-249.0234375,10.7421875
3,1734036484842.2188,-997.0703125,-1000,-53.22265625,33.69140625
4,1734036484846.125,-1000,-1000,-131.34765625,24.4140625
5,1734036484850.0312,-826.171875,-1000,-399.4140625,7.8125
6,1734036484853.9375,-649.90234375,-1000,-398.4375,0
7,1734036484857.8438,-731.4453125,-1000,-263.671875,31.73828125
8,1734036484861.75,-816.40625,-1000,-422.36328125,48.828125
9,1734036484865.6562,-609.86328125,-1000,-763.18359375,11.23046875
10,1734036484869.5625,-77.1484375,-1000,-435.546875,-22.4609375
11,1734036484873.4688,-198.2421875,-1000,-141.6015625,5.37109375
0,1734036484877.375,-596.19140625,-1000,-189.453125,16.11328125
1,1734036484881.2812,-284.66796875,-1000,-34.66796875,-1.46484375
2,1734036484885.1875,241.2109375,-1000,-59.5703125,-22.94921875
3,1734036484889.0938,268.5546875,-1000,-263.671875,-16.11328125
4,1734036484893,48.828125,-1000,-258.7890625,16.6015625
5,1734036484896.9062,126.953125,-1000,-266.11328125,9.27734375
6,1734036484900.8125,608.88671875,-1000,-258.30078125,-18.5546875
7,1734036484904.7188,783.203125,-1000,-316.40625,14.6484375
8,1734036484908.625,183.59375,-1000,-529.78515625,38.57421875
9,1734036484912.5312,9.765625,-1000,-131.34765625,-19.04296875
10,1734036484916.4375,480.46875,-1000,131.34765625,-66.89453125
11,1734036484920.3438,680.17578125,-1000,-234.86328125,-59.5703125
0,1734036484924.25,408.203125,-1000,-280.2734375,5.37109375
1,1734036484928.1562,290.52734375,-1000,88.8671875,29.78515625
2,1734036484932.0625,604.00390625,-1000,93.26171875,-4.8828125
3,1734036484935.9688,987.3046875,-1000,-152.83203125,-9.27734375
4,1734036484939.875,846.6796875,-1000,-159.1796875,12.6953125
5,1734036484943.7812,574.21875,-1000,-179.6875,10.25390625
6,1734036484947.6875,733.88671875,-1000,-228.515625,3.41796875
7,1734036484951.5938,966.30859375,-1000,-515.625,-13.18359375
8,1734036484955.5,972.16796875,-1000,-678.22265625,13.671875
9,1734036484959.4062,963.8671875,-1000,-38.57421875,25.390625
10,1734036484963.3125,973.14453125,-1000,44.921875,-0.9765625
11,1734036484967.2188,958.0078125,-1000,-327.1484375,-35.15625
0,1734036484971.125,994.62890625,-1000,-277.34375,-54.6875
1,1734036484975.0312,853.515625,-1000,-99.12109375,-41.50390625
2,1734036484978.9375,540.0390625,-1000,-59.08203125,-4.8828125
3,1734036484982.8438,700.68359375,-1000,-221.19140625,-20.99609375
4,1734036484986.75,918.45703125,-1000,-317.3828125,-70.3125
5,1734036484990.6562,488.28125,-1000,-285.15625,-18.06640625
6,1734036484994.5625,104.98046875,-1000,-326.66015625,19.53125
7,1734036484998.4688,238.76953125,-1000,-491.69921875,-7.32421875
8,1734036485002.375,678.7109375,-1000,-324.21875,-29.296875
9,1734036485006.2812,586.42578125,-1000,-146.97265625,-24.4140625
10,1734036485010.1875,207.03125,-1000,-257.32421875,-1.46484375
11,1734036485014.0938,320.3125,-1000,-314.94140625,6.34765625
0,1734036485018,781.25,-1000,-252.9296875,-23.4375
1,1734036485021.9062,882.32421875,-1000,-309.5703125,-20.99609375
2,1734036485025.8125,429.19921875,-1000,-438.96484375,21.97265625
3,1734036485029.7188,466.796875,-1000,-389.16015625,18.5546875
4,1734036485033.625,909.66796875,-1000,-287.109375,-26.85546875
5,1734036485037.5312,981.93359375,-1000,-409.1796875,-5.37109375
6,1734036485041.4375,958.0078125,-1000,-538.0859375,56.640625
7,1734036485045.3438,972.16796875,-1000,-560.05859375,47.8515625
8,1734036485049.25,970.703125,-1000,-289.55078125,-13.671875
9,1734036485053.1562,970.703125,-1000,-325.68359375,-14.6484375
10,1734036485057.0625,970.703125,-1000,-452.63671875,29.296875
11,1734036485060.9688,970.703125,-1000,-265.625,42.48046875
0,1734036485064.875,970.703125,-1000,-188.4765625,40.0390625
1,1734036485068.7812,970.703125,-1000,-344.7265625,2.44140625
2,1734036485072.6875,970.703125,-1000,-366.2109375,2.44140625
3,1734036485076.5938,970.703125,-1000,-258.7890625,20.99609375
4,1734036485080.5,970.703125,-1000,-267.578125,0.48828125
5,1734036485084.4062,970.703125,-1000,-381.34765625,-42.96875
6,1734036485088.3125,970.703125,-1000,-673.33984375,-36.62109375
7,1734036485092.2188,970.703125,-1000,-489.74609375,16.6015625
8,1734036485096.125,970.703125,-1000,-47.36328125,-14.16015625
9,1734036485100.0312,970.703125,-1000,-266.6015625,-52.24609375
10,1734036485103.9375,970.703125,-1000,-425.29296875,-58.10546875
11,1734036485107.8438,970.703125,-1000,-133.7890625,-31.25
0,1734036485111.75,970.703125,-1000,23.4375,-19.53125
1,1734036485115.6562,971.19140625,-1000,-124.51171875,-20.5078125
2,1734036485119.5625,970.703125,-1000,-296.38671875,-23.4375
3,1734036485123.4688,970.21484375,-1000,-187.98828125,-14.16015625
4,1734036485127.375,970.703125,-1000,-57.6171875,-8.30078125
5,1734036485131.2812,970.703125,-1000,-294.43359375,-20.01953125
6,1734036485135.1875,970.703125,-1000,-441.40625,-35.64453125
7,1734036485139.0938,970.703125,-1000,-300.78125,-12.6953125
8,1734036485143,970.703125,-1000,-188.4765625,16.6015625
9,1734036485146.9062,970.703125,-998.53515625,-460.9375,8.7890625
10,1734036485150.8125,970.703125,-1000,-657.2265625,-26.3671875
11,1734036485154.7188,970.703125,-991.69921875,-174.31640625,-48.828125
0,1734036485158.625,970.703125,-979.00390625,1.46484375,-12.20703125
1,1734036485162.5312,970.703125,-968.75,-82.51953125,14.6484375
2,1734036485166.4375,970.703125,-967.28515625,-152.83203125,-20.99609375
3,1734036485170.3438,970.703125,-988.28125,-215.8203125,-46.875
4,1734036485174.25,970.703125,-973.14453125,-192.3828125,-14.6484375
5,1734036485178.1562,970.703125,-998.53515625,-289.55078125,5.859375
6,1734036485182.0625,970.703125,-1000,-314.453125,0.48828125
7,1734036485185.9688,970.703125,-981.4453125,-218.75,-12.20703125
8,1734036485189.875,970.703125,-978.515625,-300.29296875,9.765625
9,1734036485193.7812,971.19140625,-1000,-618.1640625,16.11328125
10,1734036485197.6875,970.703125,-911.62109375,-344.7265625,-27.83203125
11,1734036485201.5938,970.703125,-810.546875,-132.8125,-68.84765625
0,1734036485205.5,970.703125,-940.91796875,-316.89453125,-44.921875
1,1734036485209.4062,970.703125,-840.33203125,-200.68359375,15.13671875
2,1734036485213.3125,970.703125,-648.92578125,17.08984375,6.34765625
3,1734036485217.2188,970.703125,-756.34765625,-124.51171875,-36.62109375
4,1734036485221.125,970.703125,-941.89453125,-388.18359375,-25.87890625
5,1734036485225.0312,970.703125,-1000,-376.953125,29.296875
6,1734036485228.9375,970.703125,-996.09375,-321.77734375,28.3203125
7,1734036485232.8438,970.703125,-987.3046875,-318.84765625,-1.953125
8,1734036485236.75,970.703125,-1000,-583.0078125,-10.7421875
9,1734036485240.6562,970.703125,-986.81640625,-652.34375,20.99609375
10,1734036485244.5625,970.703125,-623.53515625,-105.46875,27.34375
11,1734036485248.4688,970.703125,-718.26171875,-183.10546875,-12.6953125
0,1734036485252.375,970.703125,-1000,-445.80078125,-33.69140625
1,1734036485256.2812,970.703125,-656.73828125,-246.58203125,2.44140625
2,1734036485260.1875,970.703125,-244.62890625,15.625,36.62109375
3,1734036485264.0938,970.703125,-323.2421875,-16.6015625,-8.30078125
4,1734036485268,970.703125,-689.453125,-311.5234375,-28.80859375
5,1734036485271.9062,970.703125,-852.5390625,-370.1171875,-38.57421875
6,1734036485275.8125,970.703125,-682.12890625,-180.17578125,-23.4375
7,1734036485279.7188,970.703125,-491.69921875,-195.80078125,-23.4375
8,1734036485283.625,970.703125,-832.03125,-494.140625,-60.05859375
9,1734036485287.5312,970.703125,-634.765625,-312.01171875,-57.6171875
10,1734036485291.4375,970.703125,-74.70703125,-9.765625,-28.80859375
11,1734036485295.3438,970.21484375,-290.52734375,-92.7734375,0.48828125
0,1734036485299.25,970.703125,-513.18359375,-282.71484375,-15.13671875
1,1734036485303.1562,970.703125,-566.40625,-317.3828125,-60.05859375
2,1734036485307.0625,970.703125,-574.70703125,-230.46875,-31.25
3,1734036485310.9688,970.703125,-588.8671875,-257.32421875,17.08984375
4,1734036485314.875,970.703125,-790.52734375,-400.87890625,0.9765625
5,1734036485318.7812,970.703125,-817.3828125,-379.8828125,-62.01171875
6,1734036485322.6875,970.703125,-970.703125,-319.82421875,-28.80859375
7,1734036485326.5938,970.703125,-961.42578125,-457.03125,44.43359375
8,1734036485330.5,970.703125,-970.703125,-608.88671875,15.625
9,1734036485334.4062,970.703125,-629.8828125,-237.79296875,-73.2421875
10,1734036485338.3125,970.703125,-465.33203125,-217.7734375,-56.640625
11,1734036485342.2188,970.703125,-704.1015625,-320.3125,13.18359375
0,1734036485346.125,970.703125,-523.92578125,-70.80078125,-3.41796875
1,1734036485350.0312,970.703125,-301.7578125,3.41796875,-56.640625
2,1734036485353.9375,970.703125,-576.66015625,-235.83984375,-55.6640625
3,1734036485357.8438,970.703125,-844.7265625,-306.15234375,-2.9296875
4,1734036485361.75,970.703125,-801.7578125,-252.9296875,12.20703125
5,1734036485365.6562,970.703125,-863.28125,-302.734375,-29.296875
6,1734036485369.5625,970.703125,-1000,-391.11328125,-60.05859375
7,1734036485373.4688,970.703125,-1000,-625.48828125,-25.87890625
8,1734036485377.375,970.703125,-954.58984375,-470.21484375,0
9,1734036485381.2812,970.703125,-625.9765625,-110.83984375,-26.3671875
10,1734036485385.1875,971.19140625,-741.69921875,-359.86328125,-25.87890625
11,1734036485389.0938,970.703125,-905.76171875,-419.921875,1.46484375
0,1734036485393,970.703125,-637.20703125,-188.96484375,25.390625
1,1734036485396.9062,970.703125,-573.73046875,-187.98828125,17.08984375
2,1734036485400.8125,970.703125,-829.1015625,-402.83203125,-42.96875
3,1734036485404.7188,970.703125,-974.609375,-423.33984375,-42.96875
4,1734036485408.625,970.703125,-821.2890625,-265.13671875,-2.9296875
5,1734036485412.5312,970.21484375,-932.12890625,-315.91796875,0.48828125
6,1734036485416.4375,970.21484375,-1000,-589.84375,-20.5078125
7,1734036485420.3438,970.703125,-993.1640625,-687.01171875,-11.23046875
8,1734036485424.25,970.703125,-1000,-331.54296875,25.390625
9,1734036485428.1562,972.65625,-1000,-330.078125,-1.46484375
10,1734036485432.0625,959.47265625,-998.046875,-447.75390625,-35.15625
11,1734036485435.9688,976.07421875,-995.1171875,-387.6953125,-43.9453125
0,1734036485439.875,905.76171875,-996.09375,-299.8046875,-24.90234375
1,1734036485443.7812,514.6484375,-993.65234375,-287.109375,5.859375
2,1734036485447.6875,64.94140625,-999.51171875,-543.9453125,22.4609375
3,1734036485451.5938,304.6875,-1000,-525.87890625,-19.04296875
4,1734036485455.5,339.35546875,-1000,-365.234375,-20.99609375
5,1734036485459.4062,-121.58203125,-1000,-491.69921875,25.87890625
6,1734036485463.3125,-256.34765625,-1000,-601.07421875,13.18359375
7,1734036485467.2188,200.1953125,-1000,-462.890625,-35.64453125
8,1734036485471.125,626.46484375,-1000,-416.9921875,-23.92578125
9,1734036485475.0312,218.26171875,-1000,-574.21875,12.6953125
10,1734036485478.9375,-153.80859375,-1000,-554.6875,22.94921875
11,1734036485482.8438,174.8046875,-1000,-332.03125,-21.484375
0,1734036485486.75,743.65234375,-1000,-403.3203125,-75.68359375
1,1734036485490.6562,311.5234375,-1000,-439.453125,-4.39453125
2,1734036485494.5625,-285.15625,-1000,-335.9375,27.83203125
3,1734036485498.4688,-163.57421875,-1000,-291.015625,-27.34375
4,1734036485502.375,258.30078125,-1000,-448.2421875,-37.59765625
5,1734036485506.2812,-96.19140625,-1000,-554.19921875,6.8359375
6,1734036485510.1875,-844.7265625,-1000,-426.7578125,14.6484375
7,1734036485514.0938,-974.12109375,-1000,-430.6640625,-6.34765625
8,1734036485518,-505.859375,-1000,-492.67578125,-42.96875
9,1734036485521.9062,-458.984375,-1000,-688.96484375,-37.109375
10,1734036485525.8125,-982.421875,-1000,-756.34765625,6.34765625
11,1734036485529.7188,-1000,-1000,-399.90234375,-13.671875
0,1734036485533.625,-485.83984375,-1000,-375,-45.8984375
1,1734036485537.5312,-146.97265625,-1000,-555.17578125,-27.83203125
2,1734036485541.4375,-763.18359375,-1000,-391.6015625,1.46484375
3,1734036485545.3438,-1000,-1000,-266.11328125,-12.20703125
4,1734036485549.25,-654.296875,-1000,-416.50390625,-41.50390625
5,1734036485553.1562,-87.40234375,-1000,-603.02734375,-57.6171875
6,1734036485557.0625,-597.16796875,-1000,-485.83984375,0
7,1734036485560.9688,-1000,-1000,-304.6875,30.76171875
8,1734036485564.875,-1000,-1000,-470.703125,-10.7421875
9,1734036485568.7812,-887.20703125,-1000,-692.3828125,-39.55078125
10,1734036485572.6875,-865.72265625,-1000,-427.24609375,-26.85546875
11,1734036485576.5938,-1000,-1000,-312.98828125,-9.27734375
0,1734036485580.5,-1000,-1000,-442.87109375,-20.01953125
1,1734036485584.4062,-895.99609375,-1000,-570.3125,-29.78515625
2,1734036485588.3125,-850.5859375,-1000,-557.12890625,-20.99609375
3,1734036485592.2188,-1000,-1000,-382.8125,-8.30078125
4,1734036485596.125,-1000,-1000,-528.3203125,-8.7890625
5,1734036485600.0312,-995.60546875,-1000,-698.2421875,-20.01953125
6,1734036485603.9375,-1000,-1000,-602.5390625,-43.9453125
7,1734036485607.8438,-1000,-1000,-511.71875,-41.9921875
8,1734036485611.75,-1000,-1000,-669.43359375,-29.296875
9,1734036485615.6562,-1000,-1000,-806.640625,-36.1328125
10,1734036485619.5625,-1000,-1000,-516.6015625,-67.87109375
11,1734036485623.4688,-1000,-1000,-472.16796875,-51.7578125
0,1734036485627.375,-1000,-1000,-500,-0.9765625
1,1734036485631.2812,-1000,-1000,-433.10546875,-21.484375
2,1734036485635.1875,-1000,-1000,-496.09375,-73.73046875
3,1734036485639.0938,-1000,-1000,-552.734375,-50.29296875
4,1734036485643,-1000,-1000,-598.6328125,0
5,1734036485646.9062,-1000,-1000,-598.6328125,-3.90625
6,1734036485650.8125,-1000,-1000,-594.23828125,-41.9921875
7,1734036485654.7188,-1000,-1000,-682.6171875,-35.15625
8,1734036485658.625,-1000,-1000,-750.9765625,12.6953125
9,1734036485662.5312,-1000,-1000,-486.81640625,1.953125
10,1734036485666.4375,-1000,-1000,-425.29296875,-43.9453125
11,1734036485670.3438,-1000,-1000,-607.421875,-73.2421875
0,1734036485674.25,-1000,-1000,-570.80078125,-26.3671875
1,1734036485678.1562,-1000,-1000,-411.62109375,-1.953125
2,1734036485682.0625,-1000,-1000,-465.8203125,-43.45703125
3,1734036485685.9688,-1000,-1000,-603.515625,-77.1484375
4,1734036485689.875,-1000,-1000,-579.1015625,-39.55078125
5,1734036485693.7812,-1000,-1000,-596.19140625,-23.4375
6,1734036485697.6875,-1000,-1000,-605.46875,-67.87109375
7,1734036485701.5938,-1000,-1000,-762.20703125,-88.37890625
8,1734036485705.5,-1000,-1000,-888.671875,-71.77734375
9,1734036485709.4062,-1000,-1000,-546.38671875,-28.80859375
10,1734036485713.3125,-1000,-1000,-448.73046875,-26.85546875
11,1734036485717.2188,-1000,-1000,-661.1328125,-76.66015625
0,1734036485721.125,-1000,-1000,-591.30859375,-58.10546875
1,1734036485725.0312,-1000,-1000,-447.265625,15.625
2,1734036485728.9375,-1000,-1000,-489.74609375,10.7421875
3,1734036485732.8438,-1000,-1000,-594.23828125,-32.71484375
4,1734036485736.75,-1000,-1000,-604.98046875,-43.9453125
5,1734036485740.6562,-1000,-1000,-593.75,-7.8125
6,1734036485744.5625,-1000,-1000,-617.1875,41.9921875
7,1734036485748.4688,-1000,-1000,-696.2890625,31.25
8,1734036485752.375,-1000,-1000,-642.08984375,-8.7890625
9,1734036485756.2812,-1000,-1000,-555.17578125,7.8125
10,1734036485760.1875,-1000,-1000,-587.890625,20.5078125
11,1734036485764.0938,-1000,-1000,-675.78125,-4.8828125
0,1734036485768,-1000,-1000,-512.20703125,-42.96875
1,1734036485771.9062,-1000,-1000,-514.6484375,-36.62109375
2,1734036485775.8125,-1000,-1000,-506.34765625,1.46484375
3,1734036485779.7188,-1000,-1000,-438.4765625,19.53125
4,1734036485783.625,-1000,-1000,-513.671875,-6.34765625
5,1734036485787.5312,-1000,-1000,-650.87890625,-37.59765625
6,1734036485791.4375,-997.55859375,-1000,-760.25390625,5.37109375
7,1734036485795.3438,-1000,-1000,-744.140625,23.4375
8,1734036485799.25,-998.53515625,-1000,-548.33984375,-48.828125
9,1734036485803.1562,-945.80078125,-1000,-558.59375,-82.03125
10,1734036485807.0625,-978.515625,-1000,-612.3046875,-19.04296875
11,1734036485810.9688,-1000,-1000,-501.953125,-4.39453125
0,1734036485814.875,-1000,-1000,-426.7578125,-48.33984375
1,1734036485818.7812,-954.58984375,-1000,-481.93359375,-62.01171875
2,1734036485822.6875,-960.9375,-1000,-759.765625,-32.2265625
3,1734036485826.5938,-1000,-1000,-665.0390625,8.30078125
4,1734036485830.5,-997.55859375,-1000,-360.3515625,5.37109375
5,1734036485834.4062,-1000,-1000,-608.3984375,-28.3203125
6,1734036485838.3125,-1000,-1000,-739.2578125,-28.3203125
7,1734036485842.2188,-1000,-1000,-451.66015625,-30.2734375
8,1734036485846.125,-1000,-1000,-335.44921875,-42.48046875
9,1734036485850.0312,-1000,-1000,-556.15234375,-40.52734375
10,1734036485853.9375,-1000,-1000,-657.2265625,-58.10546875
11,1734036485857.8438,-1000,-1000,-446.2890625,-3.41796875
0,1734036485861.75,-1000,-1000,-384.765625,29.78515625
1,1734036485865.6562,-1000,-1000,-544.43359375,-30.76171875
2,1734036485869.5625,-1000,-1000,-669.43359375,-67.87109375
3,1734036485873.4688,-1000,-1000,-483.88671875,-46.875
4,1734036485877.375,-1000,-1000,-395.99609375,-12.20703125
5,1734036485881.2812,-1000,-1000,-688.4765625,-3.41796875
6,1734036485885.1875,-1000,-1000,-833.0078125,-47.36328125
7,1734036485889.0938,-1000,-1000,-621.09375,-40.0390625
8,1734036485893,-1000,-1000,-496.09375,-8.7890625
9,1734036485896.9062,-1000,-1000,-678.7109375,-26.85546875
10,1734036485900.8125,-1000,-1000,-761.23046875,-38.0859375
11,1734036485904.7188,-1000,-1000,-478.515625,-40.52734375
0,1734036485908.625,-1000,-1000,-441.89453125,-26.85546875
1,1734036485912.5312,-1000,-1000,-498.046875,-10.7421875
2,1734036485916.4375,-1000,-1000,-478.515625,-24.90234375
3,1734036485920.3438,-1000,-1000,-506.8359375,-32.71484375
4,1734036485924.25,-1000,-1000,-570.3125,2.9296875
5,1734036485928.1562,-1000,-1000,-673.33984375,33.203125
6,1734036485932.0625,-1000,-1000,-609.375,-10.7421875
7,1734036485935.9688,-1000,-1000,-499.51171875,-68.359375
8,1734036485939.875,-1000,-1000,-616.2109375,-43.45703125
9,1734036485943.7812,-1000,-1000,-639.16015625,-10.7421875
10,1734036485947.6875,-1000,-1000,-375,-36.62109375
11,1734036485951.5938,-1000,-1000,-426.7578125,-59.5703125
0,1734036485955.5,-1000,-1000,-560.05859375,-48.828125
1,1734036485959.4062,-998.53515625,-1000,-491.69921875,-30.2734375
2,1734036485963.3125,-1000,-1000,-379.8828125,-25.390625
3,1734036485967.2188,-991.69921875,-1000,-464.35546875,-52.24609375
4,1734036485971.125,-979.4921875,-1000,-621.58203125,-71.77734375
5,1734036485975.0312,-1000,-1000,-607.91015625,-29.296875
6,1734036485978.9375,-1000,-1000,-526.3671875,-11.23046875
7,1734036485982.8438,-999.51171875,-1000,-566.89453125,-49.31640625
8,1734036485986.75,-1000,-1000,-774.4140625,-53.22265625
9,1734036485990.6562,-1000,-1000,-879.39453125,-4.8828125
10,1734036485994.5625,-1000,-1000,-535.64453125,-5.37109375
11,1734036485998.4688,-1000,-1000,-461.42578125,-23.4375
0,1734036486002.375,-1000,-1000,-687.5,-52.734375
1,1734036486006.2812,-1000,-1000,-559.08203125,-35.64453125
2,1734036486010.1875,-1000,-1000,-458.984375,18.06640625
3,1734036486014.0938,-1000,-1000,-521.97265625,-0.48828125
4,1734036486018,-1000,-1000,-647.4609375,-30.76171875
5,1734036486021.9062,-1000,-1000,-701.171875,-25.390625
6,1734036486025.8125,-1000,-1000,-553.22265625,-17.08984375
7,1734036486029.7188,-1000,-1000,-540.0390625,-22.4609375
8,1734036486033.625,-1000,-1000,-785.64453125,-58.10546875
9,1734036486037.5312,-1000,-1000,-701.171875,-61.5234375
10,1734036486041.4375,-994.140625,-1000,-440.4296875,-14.16015625
11,1734036486045.3438,-1000,-1000,-573.2421875,-19.53125
0,1734036486049.25,-996.58203125,-1000,-724.12109375,-44.921875
1,1734036486053.1562,-825.68359375,-1000,-546.38671875,-73.2421875
2,1734036486057.0625,-874.51171875,-1000,-483.3984375,-57.12890625
3,1734036486060.9688,-1000,-1000,-473.6328125,1.46484375
4,1734036486064.875,-950.68359375,-1000,-492.1875,10.7421875
5,1734036486068.7812,-535.64453125,-1000,-634.765625,-25.390625
6,1734036486072.6875,-494.140625,-1000,-614.74609375,-38.0859375
7,1734036486076.5938,-942.3828125,-1000,-696.77734375,3.90625
8,1734036486080.5,-989.2578125,-1000,-789.0625,10.7421875
9,1734036486084.4062,-394.04296875,-1000,-471.6796875,-37.109375
10,1734036486088.3125,-138.671875,-1000,-467.7734375,-32.2265625
11,1734036486092.2188,-659.66796875,-1000,-562.01171875,7.8125
0,1734036486096.125,-855.95703125,-1000,-440.91796875,29.78515625
1,1734036486100.0312,-395.5078125,-1000,-400.87890625,-26.85546875
2,1734036486103.9375,-35.15625,-1000,-542.96875,-49.8046875
3,1734036486107.8438,-490.72265625,-1000,-560.05859375,4.8828125
4,1734036486111.75,-761.23046875,-1000,-422.36328125,3.41796875
5,1734036486115.6562,-429.19921875,-1000,-520.5078125,-16.6015625
6,1734036486119.5625,-55.17578125,-1000,-685.05859375,-39.55078125
7,1734036486123.4688,-252.44140625,-1000,-689.94140625,-24.90234375
8,1734036486127.375,-608.3984375,-1000,-413.57421875,-32.2265625
9,1734036486131.2812,-398.4375,-1000,-315.4296875,-48.33984375
10,1734036486135.1875,58.59375,-1000,-551.7578125,-38.57421875
11,1734036486139.0938,-28.3203125,-1000,-582.03125,-23.92578125
0,1734036486143,-530.2734375,-1000,-346.6796875,5.37109375
1,1734036486146.9062,-677.24609375,-1000,-349.12109375,3.90625
2,1734036486150.8125,-452.63671875,-1000,-655.76171875,-24.90234375
3,1734036486154.7188,-315.91796875,-1000,-679.19921875,-36.1328125
4,1734036486158.625,-726.5625,-999.51171875,-415.52734375,-32.71484375
5,1734036486162.5312,-1000,-1000,-466.30859375,-2.44140625
6,1734036486166.4375,-787.109375,-999.0234375,-683.59375,-22.4609375
7,1734036486170.3438,-471.6796875,-1000,-778.80859375,-55.6640625
8,1734036486174.25,-606.93359375,-991.2109375,-454.58984375,-11.71875
9,1734036486178.1562,-882.8125,-973.6328125,-335.9375,-15.13671875
10,1734036486182.0625,-724.609375,-995.1171875,-587.40234375,-49.8046875
11,1734036486185.9688,-154.296875,-1000,-599.609375,-63.4765625
0,1734036486189.875,-183.10546875,-982.91015625,-384.765625,-34.66796875
1,1734036486193.7812,-754.39453125,-962.890625,-379.39453125,0.9765625
2,1734036486197.6875,-697.265625,-990.72265625,-443.359375,1.953125
3,1734036486201.5938,-218.75,-998.53515625,-454.58984375,-41.9921875
4,1734036486205.5,-228.515625,-999.0234375,-520.99609375,-56.640625
5,1734036486209.4062,-743.1640625,-1000,-542.96875,-8.7890625
6,1734036486213.3125,-902.34375,-1000,-533.69140625,-16.11328125
7,1734036486217.2188,-565.91796875,-1000,-508.7890625,-52.734375
8,1734036486221.125,-477.5390625,-1000,-457.03125,-74.70703125
9,1734036486225.0312,-884.27734375,-999.51171875,-504.39453125,-36.1328125
10,1734036486228.9375,-1000,-1000,-762.6953125,-4.39453125
11,1734036486232.8438,-906.25,-1000,-568.84765625,-51.26953125
0,1734036486236.75,-827.1484375,-1000,-407.2265625,-83.984375
1,1734036486240.6562,-982.91015625,-1000,-473.14453125,-39.0625
2,1734036486244.5625,-1000,-993.1640625,-411.1328125,-31.73828125
3,1734036486248.4688,-992.67578125,-995.1171875,-373.53515625,-77.1484375
4,1734036486252.375,-1000,-1000,-473.6328125,-84.47265625
5,1734036486256.2812,-1000,-1000,-666.015625,-50.29296875
6,1734036486260.1875,-998.53515625,-1000,-565.91796875,-8.7890625
7,1734036486264.0938,-1000,-1000,-400.87890625,-17.578125
8,1734036486268,-979.00390625,-1000,-571.2890625,-93.75
9,1734036486271.9062,-972.16796875,-1000,-648.4375,-104.00390625
10,1734036486275.8125,-990.72265625,-989.2578125,-408.69140625,-31.73828125
11,1734036486279.7188,-1000,-977.05078125,-320.3125,-24.4140625
0,1734036486283.625,-872.0703125,-989.2578125,-401.3671875,-81.0546875
1,1734036486287.5312,-776.3671875,-1000,-724.609375,-51.26953125
2,1734036486291.4375,-991.69921875,-991.2109375,-687.98828125,-18.06640625
3,1734036486295.3438,-1000,-957.03125,-285.64453125,-72.265625
4,1734036486299.25,-956.0546875,-974.12109375,-401.3671875,-87.890625
5,1734036486303.1562,-750,-1000,-642.578125,-77.1484375
6,1734036486307.0625,-822.75390625,-991.69921875,-527.34375,-35.15625
7,1734036486310.9688,-1000,-954.58984375,-291.9921875,-10.7421875
8,1734036486314.875,-964.35546875,-977.05078125,-456.0546875,-37.59765625
9,1734036486318.7812,-672.8515625,-1000,-748.53515625,-61.5234375
10,1734036486322.6875,-487.3046875,-987.79296875,-467.7734375,-41.50390625
11,1734036486326.5938,-701.66015625,-912.109375,-260.7421875,-18.5546875
0,1734036486330.5,-710.9375,-932.12890625,-449.21875,-34.1796875
1,1734036486334.4062,-272.4609375,-1000,-562.5,-66.40625
2,1734036486338.3125,-28.80859375,-998.046875,-401.85546875,-56.15234375
3,1734036486342.2188,-303.7109375,-896.97265625,-297.8515625,-1.953125
4,1734036486346.125,-449.70703125,-906.25,-374.51171875,-6.8359375
5,1734036486350.0312,-159.66796875,-1000,-508.7890625,-69.82421875
6,1734036486353.9375,127.9296875,-997.0703125,-513.671875,-83.49609375
7,1734036486357.8438,-54.6875,-988.76953125,-375.48828125,-13.18359375
8,1734036486361.75,-231.93359375,-1000,-570.80078125,41.015625
9,1734036486365.6562,-29.78515625,-991.2109375,-750.9765625,4.39453125
10,1734036486369.5625,402.34375,-914.55078125,-393.5546875,-68.359375
11,1734036486373.4688,285.64453125,-944.3359375,-363.76953125,-43.45703125
0,1734036486377.375,-86.42578125,-979.4921875,-431.640625,-26.85546875
1,1734036486381.2812,25.87890625,-755.37109375,-293.9453125,-38.0859375
2,1734036486385.1875,309.5703125,-734.375,-322.265625,-45.8984375
3,1734036486389.0938,204.58984375,-922.8515625,-392.08984375,-45.41015625
4,1734036486393,-177.734375,-927.734375,-368.65234375,9.765625
5,1734036486396.9062,-228.515625,-937.98828125,-374.0234375,26.3671875
6,1734036486400.8125,94.23828125,-970.703125,-365.72265625,-34.1796875
7,1734036486404.7188,157.2265625,-967.7734375,-431.640625,-32.2265625
8,1734036486408.625,-322.75390625,-988.28125,-555.17578125,23.92578125
9,1734036486412.5312,-453.61328125,-695.80078125,-274.90234375,22.4609375
10,1734036486416.4375,-189.94140625,-518.5546875,-201.171875,-7.32421875
11,1734036486420.3438,-58.10546875,-854.98046875,-456.54296875,-34.1796875
0,1734036486424.25,-287.109375,-848.14453125,-392.578125,-8.7890625
1,1734036486428.1562,-523.4375,-444.3359375,-177.24609375,21.484375
2,1734036486432.0625,-403.80859375,-687.98828125,-282.71484375,-17.578125
3,1734036486435.9688,-84.47265625,-1000,-538.57421875,-56.640625
4,1734036486439.875,-166.50390625,-874.51171875,-508.30078125,-41.015625
5,1734036486443.7812,-411.1328125,-807.12890625,-329.58984375,-24.90234375
6,1734036486447.6875,-237.3046875,-931.640625,-314.94140625,-14.16015625
7,1734036486451.5938,133.30078125,-980.95703125,-586.42578125,-41.50390625
8,1734036486455.5,144.04296875,-991.69921875,-732.421875,-47.36328125
9,1734036486459.4062,-47.36328125,-558.59375,-194.82421875,0.48828125
10,1734036486463.3125,-95.703125,-222.16796875,-35.64453125,-6.34765625
11,1734036486467.2188,233.88671875,-614.2578125,-263.671875,-48.828125
0,1734036486471.125,500.9765625,-710.9375,-305.6640625,-55.6640625
1,1734036486475.0312,224.609375,-334.9609375,-139.6484375,-43.9453125
2,1734036486478.9375,99.12109375,-318.84765625,-123.046875,-33.69140625
3,1734036486482.8438,365.234375,-630.37109375,-260.25390625,-42.48046875
4,1734036486486.75,749.51171875,-814.94140625,-333.984375,-39.55078125
5,1734036486490.6562,675.78125,-902.83203125,-287.109375,8.30078125
6,1734036486494.5625,483.3984375,-867.67578125,-243.65234375,20.5078125
7,1734036486498.4688,669.921875,-970.703125,-567.87109375,3.41796875
8,1734036486502.375,932.6171875,-925.78125,-546.875,-27.34375
9,1734036486506.2812,984.86328125,-432.12890625,-81.54296875,-1.953125
10,1734036486510.1875,925.78125,-415.0390625,-74.21875,25.87890625
11,1734036486514.0938,931.640625,-552.734375,-130.37109375,16.11328125
0,1734036486518,972.65625,-373.53515625,-65.4296875,-8.7890625
1,1734036486521.9062,984.86328125,-403.3203125,-174.31640625,-14.6484375
2,1734036486525.8125,891.11328125,-611.81640625,-196.77734375,25.87890625
3,1734036486529.7188,869.62890625,-541.50390625,-23.4375,37.109375
4,1734036486533.625,962.40234375,-375.9765625,-58.10546875,-13.18359375
5,1734036486537.5312,999.51171875,-855.95703125,-339.84375,-13.18359375
6,1734036486541.4375,822.75390625,-1000,-493.65234375,31.73828125
7,1734036486545.3438,648.4375,-917.96875,-476.07421875,19.53125
8,1734036486549.25,868.1640625,-909.66796875,-272.94921875,-9.765625
9,1734036486553.1562,999.51171875,-888.671875,-280.2734375,-37.109375
10,1734036486557.0625,876.953125,-939.453125,-499.51171875,1.46484375
11,1734036486560.9688,734.86328125,-837.40234375,-425.29296875,42.96875
0,1734036486564.875,887.20703125,-380.37109375,84.47265625,-14.16015625
1,1734036486568.7812,989.2578125,-556.15234375,-119.140625,-52.734375
2,1734036486572.6875,936.5234375,-839.84375,-339.84375,-21.97265625
3,1734036486576.5938,765.625,-508.30078125,-62.98828125,12.6953125
4,1734036486580.5,672.36328125,-376.953125,62.5,-18.06640625
5,1734036486584.4062,855.95703125,-811.5234375,-290.52734375,-65.4296875
6,1734036486588.3125,858.3984375,-1000,-536.62109375,-41.50390625
7,1734036486592.2188,548.828125,-647.94921875,-224.609375,-12.6953125
8,1734036486596.125,399.4140625,-279.78515625,57.6171875,-20.01953125
9,1734036486600.0312,532.2265625,-598.14453125,-244.62890625,-49.31640625
10,1734036486603.9375,660.64453125,-933.59375,-512.20703125,-73.73046875
11,1734036486607.8438,406.25,-578.125,-204.58984375,-12.6953125
0,1734036486611.75,160.15625,-240.72265625,-78.125,52.734375
1,1734036486615.6562,209.47265625,-549.8046875,-300.78125,15.13671875
2,1734036486619.5625,488.76953125,-888.18359375,-449.70703125,-60.05859375
3,1734036486623.4688,501.46484375,-524.90234375,-235.3515625,-30.2734375
4,1734036486627.375,201.66015625,-328.61328125,-183.59375,14.16015625
5,1734036486631.2812,126.953125,-743.1640625,-453.125,10.7421875
6,1734036486635.1875,356.93359375,-1000,-558.59375,-20.99609375
7,1734036486639.0938,340.33203125,-913.57421875,-382.32421875,-22.94921875
8,1734036486643,-79.58984375,-848.6328125,-287.109375,23.4375
9,1734036486646.9062,-245.1171875,-918.45703125,-526.3671875,28.3203125
10,1734036486650.8125,19.04296875,-907.71484375,-630.859375,-14.16015625
11,1734036486654.7188,244.140625,-610.83984375,-342.7734375,-33.69140625
0,1734036486658.625,-67.3828125,-633.7890625,-375.48828125,32.2265625
1,1734036486662.5312,-304.6875,-801.7578125,-403.3203125,31.73828125
2,1734036486666.4375,-60.546875,-561.03515625,-308.59375,-65.91796875
3,1734036486670.3438,216.30859375,-404.296875,-323.73046875,-90.33203125
4,1734036486674.25,-18.06640625,-506.8359375,-346.19140625,-29.78515625
5,1734036486678.1562,-307.6171875,-740.72265625,-390.13671875,-15.13671875
6,1734036486682.0625,-204.58984375,-882.32421875,-373.53515625,-62.98828125
7,1734036486685.9688,108.88671875,-687.01171875,-315.4296875,-55.17578125
8,1734036486689.875,107.91015625,-738.76953125,-438.4765625,-1.46484375
9,1734036486693.7812,-394.04296875,-910.64453125,-525.87890625,0.9765625
10,1734036486697.6875,-403.80859375,-543.45703125,-288.57421875,-63.96484375
11,1734036486701.5938,24.4140625,-454.1015625,-309.5703125,-117.67578125
0,1734036486705.5,-17.578125,-836.42578125,-465.8203125,-91.30859375
1,1734036486709.4062,-251.953125,-735.83984375,-371.09375,-30.2734375
2,1734036486713.3125,-255.859375,-592.7734375,-318.84765625,-5.859375
3,1734036486717.2188,43.9453125,-827.63671875,-400.390625,-26.85546875
4,1734036486721.125,208.0078125,-898.92578125,-549.31640625,-34.1796875
5,1734036486725.0312,-70.80078125,-1000,-594.23828125,-16.11328125
6,1734036486728.9375,-165.52734375,-939.453125,-385.25390625,2.44140625
7,1734036486732.8438,22.4609375,-911.1328125,-360.3515625,-14.16015625
8,1734036486736.75,210.44921875,-1000,-673.828125,-68.84765625
9,1734036486740.6562,-17.08984375,-996.58203125,-755.37109375,-48.33984375
10,1734036486744.5625,-224.12109375,-606.93359375,-259.765625,-21.97265625
11,1734036486748.4688,-95.21484375,-438.4765625,-269.04296875,-22.94921875
0,1734036486752.375,96.6796875,-848.6328125,-503.41796875,-35.15625
1,1734036486756.2812,-22.4609375,-889.16015625,-386.71875,-24.4140625
2,1734036486760.1875,-417.96875,-617.67578125,-283.69140625,-6.34765625
3,1734036486764.0938,-599.12109375,-734.375,-352.5390625,-28.3203125
4,1734036486768,-413.57421875,-998.046875,-524.4140625,-50.29296875
5,1734036486771.9062,-415.0390625,-1000,-591.30859375,-35.64453125
6,1734036486775.8125,-783.69140625,-993.1640625,-480.46875,-17.08984375
7,1734036486779.7188,-869.62890625,-998.53515625,-438.4765625,-4.8828125
8,1734036486783.625,-686.5234375,-998.53515625,-763.18359375,-16.6015625
9,1734036486787.5312,-461.9140625,-1000,-744.62890625,-70.3125
10,1734036486791.4375,-576.171875,-874.0234375,-313.96484375,-52.734375
11,1734036486795.3438,-802.24609375,-862.3046875,-402.83203125,-14.16015625
0,1734036486799.25,-653.80859375,-977.5390625,-512.6953125,-44.43359375
1,1734036486803.1562,-323.73046875,-979.98046875,-424.8046875,-72.265625
2,1734036486807.0625,-394.53125,-957.03125,-407.71484375,-17.08984375
3,1734036486810.9688,-611.328125,-915.0390625,-379.8828125,20.5078125
4,1734036486814.875,-446.2890625,-924.8046875,-396.484375,-11.23046875
5,1734036486818.7812,-82.51953125,-988.28125,-567.3828125,-27.83203125
6,1734036486822.6875,11.23046875,-1000,-565.91796875,-2.44140625
7,1734036486826.5938,-202.1484375,-988.28125,-582.03125,31.73828125
8,1734036486830.5,-184.08203125,-1000,-851.5625,20.99609375
9,1734036486834.4062,381.8359375,-923.828125,-619.140625,-42.96875
10,1734036486838.3125,781.73828125,-757.32421875,-354.98046875,-42.48046875
11,1734036486842.2188,547.8515625,-801.26953125,-393.5546875,-15.625
0,1734036486846.125,462.890625,-604.00390625,-271.484375,-27.34375
1,1734036486850.0312,727.5390625,-437.01171875,-278.3203125,-41.9921875
2,1734036486853.9375,989.74609375,-815.91796875,-448.73046875,-57.12890625
3,1734036486857.8438,851.07421875,-855.95703125,-382.32421875,-51.7578125
4,1734036486861.75,673.33984375,-442.87109375,-253.90625,-52.24609375
5,1734036486865.6562,818.84765625,-666.015625,-381.8359375,-67.3828125
6,1734036486869.5625,999.51171875,-1000,-520.01953125,-95.703125
7,1734036486873.4688,811.5234375,-979.4921875,-564.453125,-25.87890625
8,1734036486877.375,657.2265625,-500,-260.25390625,13.18359375
9,1734036486881.2812,883.30078125,-270.99609375,-182.12890625,-27.83203125
10,1734036486885.1875,980.95703125,-798.828125,-504.39453125,-34.1796875
11,1734036486889.0938,964.84375,-830.078125,-539.0625,-25.390625
0,1734036486893,969.7265625,-245.60546875,-151.3671875,-16.6015625
1,1734036486896.9062,971.6796875,-5.859375,-103.02734375,-26.3671875
2,1734036486900.8125,967.28515625,-488.28125,-313.96484375,-50.78125
3,1734036486904.7188,975.09765625,-720.21484375,-317.87109375,-46.875
4,1734036486908.625,959.47265625,-325.1953125,-225.5859375,7.8125
5,1734036486912.5312,874.0234375,-459.9609375,-252.9296875,29.78515625
6,1734036486916.4375,901.85546875,-808.59375,-507.8125,5.37109375
7,1734036486920.3438,994.62890625,-1000,-702.63671875,-19.53125
8,1734036486924.25,888.671875,-689.453125,-303.22265625,7.8125
9,1734036486928.1562,678.7109375,-114.74609375,-155.76171875,23.92578125
10,1734036486932.0625,679.6875,-509.27734375,-369.62890625,-14.6484375
11,1734036486935.9688,923.33984375,-686.5234375,-363.28125,-47.36328125
0,1734036486939.875,834.47265625,-570.80078125,-297.36328125,-33.69140625
1,1734036486943.7812,476.5625,-456.54296875,-276.3671875,-18.5546875
2,1734036486947.6875,365.72265625,-549.8046875,-347.16796875,-20.99609375
3,1734036486951.5938,612.3046875,-623.53515625,-348.6328125,-41.015625
4,1734036486955.5,607.421875,-355.95703125,-302.24609375,-37.109375
5,1734036486959.4062,129.39453125,-519.53125,-363.76953125,-10.25390625
6,1734036486963.3125,-100.09765625,-825.68359375,-492.67578125,-25.390625
7,1734036486967.2188,212.890625,-556.640625,-361.328125,-50.78125
8,1734036486971.125,502.9296875,-196.77734375,-268.06640625,-28.3203125
9,1734036486975.0312,138.18359375,-385.25390625,-357.421875,15.625
10,1734036486978.9375,-157.2265625,-386.71875,-344.7265625,7.8125
11,1734036486982.8438,31.73828125,-75.68359375,-230.46875,-36.1328125
0,1734036486986.75,287.109375,-136.71875,-296.38671875,-66.40625
1,1734036486990.6562,26.3671875,-443.84765625,-350.5859375,-33.203125
2,1734036486994.5625,-316.40625,-594.23828125,-349.12109375,12.6953125
3,1734036486998.4688,-145.5078125,-299.31640625,-283.203125,-1.953125
4,1734036487002.375,198.2421875,-209.47265625,-281.25,-41.9921875
5,1734036487006.2812,83.49609375,-728.02734375,-567.3828125,-32.71484375
6,1734036487010.1875,-278.3203125,-994.140625,-685.05859375,1.46484375
7,1734036487014.0938,-184.08203125,-668.9453125,-355.95703125,-9.27734375
8,1734036487018,180.6640625,-401.85546875,-309.5703125,-46.875
9,1734036487021.9062,115.72265625,-728.515625,-559.5703125,-36.1328125
10,1734036487025.8125,-279.78515625,-619.140625,-434.08203125,-2.9296875
11,1734036487029.7188,-368.1640625,79.58984375,-141.6015625,-41.9921875
0,1734036487033.625,-211.42578125,-49.8046875,-309.08203125,-78.125
1,1734036487037.5312,-109.375,-523.4375,-439.94140625,-95.21484375
2,1734036487041.4375,-437.98828125,-361.81640625,-301.7578125,-54.19921875
3,1734036487045.3438,-680.17578125,62.5,-193.359375,-19.04296875
4,1734036487049.25,-518.06640625,-101.5625,-308.10546875,-33.203125
5,1734036487053.1562,-249.51171875,-723.6328125,-510.7421875,-43.9453125
6,1734036487057.0625,-379.39453125,-882.32421875,-457.51953125,-30.2734375
7,1734036487060.9688,-652.34375,-540.52734375,-284.1796875,-43.45703125
8,1734036487064.875,-541.9921875,-470.703125,-357.421875,-56.640625
9,1734036487068.7812,-259.27734375,-916.015625,-670.8984375,-50.78125
10,1734036487072.6875,-188.96484375,-663.0859375,-410.64453125,-50.78125
11,1734036487076.5938,-426.7578125,4.8828125,-167.96875,-16.11328125
0,1734036487080.5,-525.87890625,-194.3359375,-327.63671875,-3.90625
1,1734036487084.4062,-229.4921875,-515.13671875,-424.8046875,-41.9921875
2,1734036487088.3125,-18.5546875,-344.23828125,-342.7734375,-44.43359375
3,1734036487092.2188,-273.4375,-116.69921875,-264.16015625,-8.30078125
4,1734036487096.125,-418.45703125,-298.33984375,-326.171875,-4.39453125
5,1734036487100.0312,-177.734375,-737.3046875,-449.70703125,-20.99609375
6,1734036487103.9375,104.98046875,-858.88671875,-483.3984375,-51.7578125
7,1734036487107.8438,-85.9375,-751.46484375,-368.65234375,-31.73828125
8,1734036487111.75,-391.6015625,-766.11328125,-517.578125,14.16015625
9,1734036487115.6562,-327.63671875,-1000,-811.03515625,9.765625
10,1734036487119.5625,97.16796875,-731.4453125,-504.39453125,-37.59765625
11,1734036487123.4688,107.421875,-231.93359375,-303.22265625,-31.25
0,1734036487127.375,-258.30078125,-532.71484375,-431.640625,5.859375
1,1734036487131.2812,-185.05859375,-442.3828125,-294.43359375,-22.4609375
2,1734036487135.1875,247.55859375,-134.27734375,-297.8515625,-45.8984375
3,1734036487139.0938,262.20703125,-405.2734375,-393.5546875,-33.69140625
4,1734036487143,-119.62890625,-523.4375,-356.4453125,-8.7890625
5,1734036487146.9062,-257.8125,-513.18359375,-352.5390625,7.8125
6,1734036487150.8125,-30.2734375,-659.1796875,-419.43359375,-38.0859375
7,1734036487154.7188,103.02734375,-846.6796875,-518.06640625,-51.26953125
8,1734036487158.625,-249.0234375,-897.94921875,-529.78515625,-4.39453125
9,1734036487162.5312,-533.203125,-490.234375,-334.9609375,-5.859375
10,1734036487166.4375,-705.078125,-339.84375,-312.01171875,-38.57421875
11,1734036487170.3438,-490.72265625,-729.98046875,-521.484375,-48.33984375
0,1734036487174.25,-491.2109375,-746.58203125,-565.4296875,-8.30078125
1,1734036487178.1562,-665.52734375,-207.51953125,-237.79296875,12.6953125
2,1734036487182.0625,-520.5078125,-28.3203125,-255.859375,-14.16015625
3,1734036487185.9688,-353.02734375,-495.1171875,-393.5546875,-64.453125
4,1734036487189.875,-499.0234375,-687.5,-389.16015625,-44.921875
5,1734036487193.7812,-846.6796875,-522.94921875,-389.6484375,13.18359375
6,1734036487197.6875,-733.3984375,-676.7578125,-380.859375,-8.7890625
7,1734036487201.5938,-315.4296875,-931.15234375,-634.27734375,-58.59375
8,1734036487205.5,-98.14453125,-856.93359375,-643.06640625,-37.109375
9,1734036487209.4062,-204.58984375,-336.42578125,-258.7890625,-15.625
10,1734036487213.3125,-319.82421875,-151.3671875,-224.12109375,-23.92578125
11,1734036487217.2188,-266.11328125,-646.97265625,-598.14453125,0.48828125
0,1734036487221.125,-151.85546875,-1000,-726.5625,-23.92578125
1,1734036487225.0312,-312.5,-563.96484375,-276.3671875,-50.29296875
2,1734036487228.9375,-606.93359375,-298.33984375,-266.6015625,-45.41015625
3,1734036487232.8438,-576.66015625,-723.6328125,-450.1953125,-55.17578125
4,1734036487236.75,-199.21875,-844.7265625,-433.10546875,-75.1953125
5,1734036487240.6562,-328.125,-805.6640625,-392.578125,-44.43359375
6,1734036487244.5625,-628.90625,-891.6015625,-400.87890625,-1.953125
7,1734036487248.4688,-527.83203125,-938.96484375,-525.87890625,-22.94921875
8,1734036487252.375,-127.9296875,-701.171875,-393.5546875,-61.03515625
9,1734036487256.2812,12.6953125,-365.234375,-259.27734375,-41.50390625
10,1734036487260.1875,-151.3671875,-435.05859375,-349.609375,7.32421875
11,1734036487264.0938,-46.875,-520.5078125,-376.46484375,7.8125
0,1734036487268,291.50390625,-296.38671875,-278.3203125,-36.62109375
1,1734036487271.9062,539.0625,-262.20703125,-301.7578125,-42.96875
2,1734036487275.8125,283.203125,-552.734375,-357.91015625,-5.859375
3,1734036487279.7188,138.671875,-731.93359375,-351.07421875,0.9765625
4,1734036487283.625,385.7421875,-385.25390625,-312.98828125,-34.66796875
5,1734036487287.5312,557.6171875,-672.8515625,-418.45703125,-65.91796875
6,1734036487291.4375,197.265625,-970.21484375,-554.19921875,-36.1328125
7,1734036487295.3438,-227.05078125,-1000,-787.109375,-19.53125
8,1734036487299.25,-37.109375,-650.390625,-451.66015625,-30.2734375
9,1734036487303.1562,325.68359375,-251.953125,-274.90234375,-39.55078125
10,1734036487307.0625,146.484375,-613.28125,-405.2734375,-6.8359375
11,1734036487310.9688,-144.04296875,-463.8671875,-250.48828125,16.11328125
0,1734036487314.875,-121.09375,-40.0390625,-187.01171875,-30.76171875
1,1734036487318.7812,95.21484375,-290.52734375,-339.35546875,-68.84765625
2,1734036487322.6875,107.91015625,-659.66796875,-407.71484375,-41.015625
3,1734036487326.5938,-209.47265625,-348.6328125,-226.07421875,-2.9296875
4,1734036487330.5,-270.99609375,-149.4140625,-235.83984375,8.7890625
5,1734036487334.4062,14.6484375,-649.4140625,-463.37890625,-4.8828125
6,1734036487338.3125,94.23828125,-979.98046875,-612.79296875,-18.06640625
7,1734036487342.2188,-188.4765625,-833.0078125,-400.87890625,4.8828125
8,1734036487346.125,-274.90234375,-288.0859375,-172.36328125,4.39453125
9,1734036487350.0312,-108.3984375,-345.21484375,-379.39453125,-27.83203125
10,1734036487353.9375,98.14453125,-805.6640625,-553.22265625,-34.66796875
11,1734036487357.8438,-59.5703125,-433.59375,-290.52734375,10.25390625
0,1734036487361.75,-355.46875,-49.31640625,-198.2421875,53.22265625
1,1734036487365.6562,-341.30859375,-391.11328125,-359.375,19.53125
2,1734036487369.5625,-84.9609375,-800.78125,-480.46875,-49.31640625
3,1734036487373.4688,-107.421875,-473.6328125,-342.28515625,-41.9921875
4,1734036487377.375,-407.2265625,-206.54296875,-257.8125,-1.46484375
5,1734036487381.2812,-505.37109375,-609.375,-493.1640625,-17.578125
6,1734036487385.1875,-187.5,-1000,-617.67578125,-27.34375
7,1734036487389.0938,-42.48046875,-918.45703125,-458.984375,-0.48828125
8,1734036487393,-407.2265625,-770.99609375,-356.4453125,-11.71875
9,1734036487396.9062,-584.9609375,-892.578125,-575.68359375,-34.1796875
10,1734036487400.8125,-290.0390625,-848.6328125,-637.6953125,-57.6171875
11,1734036487404.7188,-5.37109375,-470.703125,-333.49609375,-57.6171875
0,1734036487408.625,-334.9609375,-318.84765625,-290.52734375,-17.578125
1,1734036487412.5312,-739.74609375,-705.078125,-549.31640625,-19.04296875
2,1734036487416.4375,-555.6640625,-812.01171875,-520.5078125,-20.99609375
3,1734036487420.3438,-157.71484375,-389.6484375,-286.1328125,-34.1796875
4,1734036487424.25,-415.52734375,-504.39453125,-364.74609375,-34.1796875
5,1734036487428.1562,-728.02734375,-843.26171875,-446.77734375,17.578125
6,1734036487432.0625,-610.3515625,-928.7109375,-436.5234375,8.30078125
7,1734036487435.9688,-273.4375,-699.21875,-369.62890625,-44.921875
8,1734036487439.875,-310.05859375,-650.390625,-428.7109375,-14.16015625
9,1734036487443.7812,-701.66015625,-885.25390625,-544.43359375,54.19921875
10,1734036487447.6875,-672.36328125,-811.5234375,-404.296875,34.66796875
11,1734036487451.5938,-251.953125,-573.73046875,-293.45703125,-22.4609375
0,1734036487455.5,-185.05859375,-742.67578125,-522.94921875,-20.5078125
1,1734036487459.4062,-528.3203125,-851.5625,-591.796875,0.48828125
2,1734036487463.3125,-595.21484375,-459.47265625,-271.97265625,-6.34765625
3,1734036487467.2188,-321.2890625,-437.5,-322.75390625,-28.80859375
4,1734036487471.125,-48.33984375,-791.50390625,-503.90625,-18.5546875
5,1734036487475.0312,-307.6171875,-990.72265625,-487.3046875,4.8828125
6,1734036487478.9375,-559.5703125,-920.41015625,-409.66796875,-13.18359375
7,1734036487482.8438,-338.8671875,-945.80078125,-408.69140625,-31.73828125
8,1734036487486.75,-7.8125,-1000,-678.7109375,-20.01953125
9,1734036487490.6562,-179.6875,-991.2109375,-765.625,-3.41796875
10,1734036487494.5625,-392.578125,-568.84765625,-309.5703125,-6.8359375
11,1734036487498.4688,-266.11328125,-355.46875,-314.453125,-21.484375
0,1734036487502.375,38.0859375,-827.63671875,-559.5703125,-68.359375
1,1734036487506.2812,8.30078125,-903.80859375,-466.796875,-51.7578125
2,1734036487510.1875,-393.06640625,-504.39453125,-292.48046875,-36.1328125
3,1734036487514.0938,-507.8125,-481.93359375,-324.21875,-58.59375
4,1734036487518,-249.51171875,-863.76953125,-550.78125,-78.61328125
5,1734036487521.9062,-118.1640625,-1000,-593.75,-55.6640625
6,1734036487525.8125,-435.05859375,-967.7734375,-458.984375,-15.13671875
7,1734036487529.7188,-598.6328125,-981.93359375,-495.60546875,-21.97265625
8,1734036487533.625,-392.08984375,-977.5390625,-631.8359375,-20.99609375
9,1734036487537.5312,-82.51953125,-905.2734375,-504.8828125,-17.578125
10,1734036487541.4375,-292.96875,-642.08984375,-337.40234375,-11.71875
11,1734036487545.3438,-635.7421875,-702.63671875,-450.1953125,-18.5546875
0,1734036487549.25,-463.8671875,-855.95703125,-525.390625,-28.3203125
1,1734036487553.1562,-38.57421875,-670.8984375,-403.3203125,-40.52734375
2,1734036487557.0625,-135.7421875,-681.640625,-437.98828125,-10.7421875
3,1734036487560.9688,-501.953125,-824.21875,-469.23828125,21.484375
4,1734036487564.875,-358.3984375,-794.43359375,-427.734375,-10.7421875
5,1734036487568.7812,54.19921875,-879.39453125,-566.89453125,-49.31640625
6,1734036487572.6875,143.06640625,-1000,-561.5234375,-30.2734375
7,1734036487576.5938,-255.859375,-972.16796875,-607.91015625,25.87890625
8,1734036487580.5,-490.72265625,-1000,-870.1171875,20.5078125
9,1734036487584.4062,-83.49609375,-878.90625,-674.31640625,-49.8046875
10,1734036487588.3125,194.82421875,-609.86328125,-432.6171875,-61.5234375
11,1734036487592.2188,-195.3125,-707.03125,-459.9609375,-8.7890625
0,1734036487596.125,-471.6796875,-537.59765625,-366.2109375,-4.39453125
1,1734036487600.0312,-325.1953125,-322.265625,-364.2578125,-44.921875
2,1734036487603.9375,-99.609375,-654.296875,-503.41796875,-50.78125
3,1734036487607.8438,-369.62890625,-797.8515625,-488.28125,-27.83203125
4,1734036487611.75,-652.83203125,-510.25390625,-393.5546875,-32.71484375
5,1734036487615.6562,-523.92578125,-721.6796875,-492.67578125,-56.15234375
6,1734036487619.5625,-188.96484375,-1000,-599.12109375,-70.3125
7,1734036487623.4688,-371.09375,-1000,-808.59375,-20.5078125
8,1734036487627.375,-689.453125,-853.515625,-664.0625,7.8125
9,1734036487631.2812,-475.5859375,-485.83984375,-341.30859375,-20.5078125
10,1734036487635.1875,-151.3671875,-726.5625,-570.80078125,-60.05859375
11,1734036487639.0938,-121.09375,-946.2890625,-647.94921875,-48.828125
0,1734036487643,-421.875,-666.50390625,-406.25,-17.578125
1,1734036487646.9062,-498.53515625,-536.1328125,-388.18359375,-9.765625
2,1734036487650.8125,-220.703125,-787.59765625,-531.73828125,-25.87890625
3,1734036487654.7188,18.5546875,-983.3984375,-568.359375,-53.22265625
4,1734036487658.625,-246.09375,-837.40234375,-479.4921875,-25.390625
5,1734036487662.5312,-479.98046875,-919.43359375,-505.859375,-6.8359375
6,1734036487666.4375,-331.54296875,-1000,-690.4296875,-28.80859375
7,1734036487670.3438,-54.19921875,-989.2578125,-820.3125,-60.546875
8,1734036487674.25,-158.69140625,-1000,-617.67578125,-45.41015625
9,1734036487678.1562,-429.19921875,-898.4375,-440.4296875,-8.7890625
10,1734036487682.0625,-400.87890625,-876.46484375,-644.53125,-21.484375
11,1734036487685.9688,-96.6796875,-1000,-750.9765625,-85.44921875
0,1734036487689.875,12.6953125,-868.1640625,-422.8515625,-84.9609375
1,1734036487693.7812,-297.36328125,-735.83984375,-407.2265625,-29.296875
2,1734036487697.6875,-328.61328125,-894.53125,-514.16015625,-32.71484375
3,1734036487701.5938,43.45703125,-927.24609375,-464.84375,-80.078125
4,1734036487705.5,170.41015625,-929.19921875,-483.88671875,-68.359375
5,1734036487709.4062,-213.8671875,-1000,-576.171875,-31.73828125
6,1734036487713.3125,-403.3203125,-985.83984375,-627.9296875,-17.578125
7,1734036487717.2188,-80.56640625,-910.64453125,-512.20703125,-38.0859375
8,1734036487721.125,238.28125,-920.41015625,-451.171875,-65.91796875
9,1734036487725.0312,-19.53125,-956.0546875,-516.6015625,-12.6953125
10,1734036487728.9375,-284.1796875,-993.65234375,-564.94140625,9.765625
11,1734036487732.8438,-112.79296875,-919.43359375,-461.9140625,-26.3671875
0,1734036487736.75,255.859375,-910.15625,-432.12890625,-62.01171875
1,1734036487740.6562,52.24609375,-1000,-596.6796875,-19.53125
2,1734036487744.5625,-364.74609375,-937.01171875,-648.92578125,20.99609375
3,1734036487748.4688,-249.51171875,-793.45703125,-395.01953125,-11.23046875
4,1734036487752.375,89.84375,-898.92578125,-491.2109375,-42.96875
5,1734036487756.2812,-12.6953125,-1000,-659.66796875,-27.83203125
6,1734036487760.1875,-384.27734375,-997.55859375,-574.21875,-1.46484375
7,1734036487764.0938,-355.46875,-988.28125,-509.765625,-10.7421875
8,1734036487768,52.24609375,-971.6796875,-481.93359375,-34.1796875
9,1734036487771.9062,166.015625,-1000,-703.61328125,-39.0625
10,1734036487775.8125,-267.08984375,-1000,-804.19921875,-6.8359375
11,1734036487779.7188,-289.0625,-754.8828125,-384.27734375,-16.11328125
0,1734036487783.625,41.50390625,-745.60546875,-421.875,-66.40625
1,1734036487787.5312,274.90234375,-1000,-622.55859375,-76.66015625
2,1734036487791.4375,95.21484375,-876.953125,-459.47265625,-15.13671875
3,1734036487795.3438,-133.30078125,-677.734375,-337.40234375,-7.32421875
4,1734036487799.25,-0.9765625,-784.1796875,-439.94140625,-37.109375
5,1734036487803.1562,281.73828125,-1000,-689.453125,-42.96875
6,1734036487807.0625,212.890625,-1000,-583.49609375,-57.12890625
7,1734036487810.9688,-75.1953125,-798.828125,-345.21484375,-58.59375
8,1734036487814.875,-53.7109375,-793.45703125,-461.9140625,-46.875
9,1734036487818.7812,262.6953125,-1000,-625.48828125,-25.87890625
10,1734036487822.6875,325.1953125,-935.05859375,-459.47265625,-7.8125
11,1734036487826.5938,-10.7421875,-742.67578125,-343.75,-17.578125
0,1734036487830.5,-111.328125,-810.05859375,-475.5859375,-2.9296875
1,1734036487834.4062,186.5234375,-984.86328125,-559.5703125,-6.34765625
2,1734036487838.3125,377.9296875,-963.37890625,-480.95703125,-27.34375
3,1734036487842.2188,22.94921875,-982.91015625,-456.0546875,6.8359375
4,1734036487846.125,-227.5390625,-999.0234375,-567.3828125,33.203125
5,1734036487850.0312,-26.3671875,-999.0234375,-674.8046875,24.4140625
6,1734036487853.9375,295.8984375,-1000,-557.6171875,-4.8828125
7,1734036487857.8438,133.30078125,-993.65234375,-477.05078125,-10.7421875
8,1734036487861.75,-197.75390625,-1000,-628.41796875,3.41796875
9,1734036487865.6562,-64.94140625,-927.24609375,-630.859375,-7.32421875
10,1734036487869.5625,346.19140625,-826.66015625,-392.578125,-21.484375
11,1734036487873.4688,300.78125,-891.11328125,-400.390625,0.48828125
0,1734036487877.375,-103.02734375,-997.55859375,-644.53125,26.85546875
1,1734036487881.2812,-100.5859375,-929.19921875,-629.8828125,-16.11328125
2,1734036487885.1875,263.18359375,-774.90234375,-388.671875,-65.91796875
3,1734036487889.0938,280.76171875,-858.88671875,-448.2421875,-55.6640625
4,1734036487893,-112.79296875,-958.49609375,-484.86328125,-23.92578125
5,1734036487896.9062,-226.5625,-983.88671875,-494.62890625,-15.13671875
6,1734036487900.8125,38.57421875,-1000,-533.69140625,-34.66796875
7,1734036487904.7188,237.79296875,-987.79296875,-568.84765625,-24.90234375
8,1734036487908.625,-67.87109375,-1000,-749.0234375,-1.46484375
9,1734036487912.5312,-196.2890625,-903.3203125,-626.46484375,-7.8125
10,1734036487916.4375,140.625,-629.8828125,-318.84765625,-33.69140625
11,1734036487920.3438,376.953125,-811.5234375,-523.4375,-39.0625
0,1734036487924.25,247.0703125,-929.6875,-558.59375,12.6953125
1,1734036487928.1562,16.6015625,-664.55078125,-354.4921875,26.3671875
2,1734036487932.0625,63.96484375,-647.94921875,-389.6484375,-21.484375
3,1734036487935.9688,334.9609375,-856.93359375,-497.55859375,-33.69140625
4,1734036487939.875,365.72265625,-942.87109375,-500.9765625,-30.2734375
5,1734036487943.7812,106.4453125,-961.42578125,-516.6015625,-22.4609375
6,1734036487947.6875,107.421875,-1000,-511.23046875,-14.6484375
7,1734036487951.5938,367.1875,-984.375,-674.8046875,-18.5546875
8,1734036487955.5,410.15625,-1000,-877.9296875,12.20703125
9,1734036487959.4062,292.48046875,-834.9609375,-538.57421875,27.83203125
10,1734036487963.3125,307.6171875,-540.0390625,-367.1875,2.9296875
11,1734036487967.2188,444.82421875,-786.1328125,-548.828125,-9.765625
0,1734036487971.125,627.44140625,-887.6953125,-500.9765625,-16.6015625
1,1734036487975.0312,407.71484375,-627.9296875,-384.765625,-17.578125
2,1734036487978.9375,140.13671875,-628.90625,-424.31640625,-13.671875
3,1734036487982.8438,262.6953125,-802.24609375,-477.05078125,-7.8125
4,1734036487986.75,593.26171875,-851.5625,-501.46484375,-8.30078125
5,1734036487990.6562,458.984375,-971.6796875,-562.98828125,-3.90625
6,1734036487994.5625,112.79296875,-1000,-576.66015625,-15.625
7,1734036487998.4688,99.609375,-979.98046875,-660.15625,-20.01953125
8,1734036488002.375,403.80859375,-892.578125,-527.83203125,-4.39453125
9,1734036488006.2812,466.30859375,-814.94140625,-410.64453125,10.7421875
10,1734036488010.1875,107.421875,-909.66796875,-566.40625,18.5546875
11,1734036488014.0938,39.0625,-917.96875,-628.41796875,16.11328125
0,1734036488018,402.83203125,-812.98828125,-454.1015625,4.8828125
1,1734036488021.9062,563.96484375,-870.1171875,-459.9609375,3.90625
2,1734036488025.8125,246.58203125,-947.265625,-551.26953125,22.4609375
3,1734036488029.7188,116.2109375,-936.03515625,-543.45703125,11.23046875
4,1734036488033.625,339.35546875,-893.5546875,-475.5859375,-7.32421875
5,1734036488037.5312,544.921875,-994.140625,-591.30859375,-12.6953125
6,1734036488041.4375,274.4140625,-1000,-732.91015625,-16.11328125
7,1734036488045.3438,6.8359375,-996.58203125,-779.296875,9.765625
8,1734036488049.25,262.6953125,-960.44921875,-487.79296875,-17.08984375
9,1734036488053.1562,540.52734375,-963.37890625,-488.76953125,-80.56640625
10,1734036488057.0625,358.3984375,-1000,-644.04296875,-77.1484375
11,1734036488060.9688,82.03125,-965.8203125,-513.18359375,-48.33984375
0,1734036488064.875,160.64453125,-964.84375,-476.07421875,-62.01171875
1,1734036488068.7812,376.953125,-1000,-669.43359375,-83.984375
2,1734036488072.6875,320.80078125,-1000,-713.8671875,-71.77734375
3,1734036488076.5938,39.55078125,-988.28125,-538.0859375,-62.01171875
4,1734036488080.5,-55.6640625,-989.74609375,-520.99609375,-85.44921875
5,1734036488084.4062,98.14453125,-1000,-710.44921875,-103.02734375
6,1734036488088.3125,214.84375,-1000,-783.203125,-62.01171875
7,1734036488092.2188,48.828125,-1000,-634.765625,-37.109375
8,1734036488096.125,-41.015625,-1000,-531.73828125,-35.64453125
9,1734036488100.0312,89.35546875,-1000,-702.63671875,-32.2265625
10,1734036488103.9375,328.125,-1000,-812.5,-49.8046875
11,1734036488107.8438,252.44140625,-1000,-653.80859375,-22.94921875
0,1734036488111.75,67.3828125,-1000,-608.88671875,-25.390625
1,1734036488115.6562,133.7890625,-1000,-709.47265625,-53.7109375
2,1734036488119.5625,384.27734375,-1000,-794.43359375,-37.59765625
3,1734036488123.4688,397.94921875,-1000,-791.015625,-37.109375
4,1734036488127.375,106.93359375,-1000,-790.0390625,-63.4765625
5,1734036488131.2812,48.828125,-1000,-863.28125,-73.2421875
6,1734036488135.1875,272.94921875,-1000,-948.2421875,-62.5
7,1734036488139.0938,453.125,-1000,-879.8828125,-87.890625
8,1734036488143,329.58984375,-1000,-822.75390625,-124.51171875
9,1734036488146.9062,196.77734375,-1000,-872.0703125,-129.8828125
10,1734036488150.8125,403.3203125,-1000,-897.94921875,-136.71875
11,1734036488154.7188,677.24609375,-1000,-845.703125,-155.2734375
0,1734036488158.625,491.69921875,-1000,-875,-154.78515625
1,1734036488162.5312,337.890625,-1000,-889.6484375,-124.0234375
2,1734036488166.4375,537.59765625,-1000,-876.953125,-115.234375
3,1734036488170.3438,835.9375,-1000,-891.6015625,-157.71484375
4,1734036488174.25,739.74609375,-1000,-914.55078125,-165.0390625
5,1734036488178.1562,466.30859375,-1000,-923.828125,-173.828125
6,1734036488182.0625,564.453125,-1000,-915.0390625,-177.24609375
7,1734036488185.9688,889.16015625,-1000,-920.41015625,-141.11328125
8,1734036488189.875,894.53125,-1000,-942.3828125,-120.1171875
9,1734036488193.7812,487.3046875,-1000,-980.95703125,-127.44140625
10,1734036488197.6875,470.21484375,-1000,-919.43359375,-121.58203125
11,1734036488201.5938,805.6640625,-1000,-913.0859375,-140.13671875
0,1734036488205.5,789.0625,-1000,-942.3828125,-142.08984375
1,1734036488209.4062,477.05078125,-1000,-926.7578125,-125
2,1734036488213.3125,381.34765625,-1000,-911.1328125,-116.69921875
3,1734036488217.2188,553.22265625,-1000,-915.52734375,-84.9609375
4,1734036488221.125,668.45703125,-1000,-938.4765625,-58.10546875
5,1734036488225.0312,416.50390625,-1000,-934.08203125,-60.546875
6,1734036488228.9375,208.984375,-1000,-908.69140625,-55.17578125
7,1734036488232.8438,291.50390625,-1000,-915.52734375,-32.2265625
8,1734036488236.75,423.33984375,-1000,-945.80078125,-5.859375
9,1734036488240.6562,174.31640625,-1000,-998.53515625,19.53125
10,1734036488244.5625,-41.015625,-1000,-892.08984375,9.765625
11,1734036488248.4688,98.14453125,-1000,-784.66796875,13.18359375
0,1734036488252.375,294.43359375,-1000,-830.56640625,6.34765625
1,1734036488256.2812,265.625,-1000,-763.18359375,19.04296875
2,1734036488260.1875,-15.13671875,-1000,-661.62109375,36.62109375
3,1734036488264.0938,-112.79296875,-1000,-650.87890625,30.76171875
4,1734036488268,58.59375,-1000,-717.7734375,41.50390625
5,1734036488271.9062,166.015625,-1000,-731.93359375,51.7578125
6,1734036488275.8125,-106.93359375,-999.0234375,-623.046875,61.03515625
7,1734036488279.7188,-304.19921875,-1000,-612.3046875,74.70703125
8,1734036488283.625,-196.77734375,-998.046875,-691.89453125,81.0546875
9,1734036488287.5312,97.16796875,-949.70703125,-512.20703125,90.8203125
10,1734036488291.4375,21.484375,-925.29296875,-396.97265625,93.75
11,1734036488295.3438,-228.02734375,-1000,-558.59375,62.5
0,1734036488299.25,-86.42578125,-871.09375,-563.96484375,49.31640625
1,1734036488303.1562,311.03515625,-624.0234375,-312.5,52.734375
2,1734036488307.0625,337.890625,-468.26171875,-279.296875,74.70703125
3,1734036488310.9688,60.546875,-603.515625,-298.828125,54.19921875
4,1734036488314.875,157.2265625,-601.07421875,-278.3203125,8.7890625
5,1734036488318.7812,503.41796875,-552.24609375,-373.046875,8.30078125
6,1734036488322.6875,589.35546875,-783.203125,-352.05078125,6.34765625
7,1734036488326.5938,340.8203125,-893.5546875,-493.1640625,-5.37109375
8,1734036488330.5,184.08203125,-986.81640625,-650.87890625,-3.90625
9,1734036488334.4062,512.6953125,-431.640625,-199.70703125,-15.625
10,1734036488338.3125,819.82421875,-18.06640625,-108.3984375,-0.9765625
11,1734036488342.2188,578.125,-225.09765625,-225.5859375,-1.46484375
0,1734036488346.125,388.18359375,-30.76171875,-11.23046875,-16.6015625
1,1734036488350.0312,585.44921875,-6.8359375,-27.34375,-18.5546875
2,1734036488353.9375,864.74609375,-137.20703125,-135.7421875,-9.27734375
3,1734036488357.8438,645.99609375,-295.41015625,-146.484375,13.671875
4,1734036488361.75,360.3515625,-88.37890625,-42.48046875,17.08984375
5,1734036488365.6562,441.40625,172.36328125,107.421875,5.37109375
6,1734036488369.5625,677.24609375,-91.30859375,-71.2890625,-4.39453125
7,1734036488373.4688,654.296875,-592.7734375,-326.66015625,-1.46484375
8,1734036488377.375,466.796875,-143.5546875,6.8359375,-9.27734375
9,1734036488381.2812,538.0859375,700.1953125,272.4609375,-5.859375
10,1734036488385.1875,741.2109375,349.609375,42.96875,2.44140625
11,1734036488389.0938,763.18359375,41.9921875,-35.64453125,7.8125
0,1734036488393,480.95703125,424.8046875,164.55078125,4.39453125
1,1734036488396.9062,349.12109375,662.109375,213.37890625,25.390625
2,1734036488400.8125,519.04296875,287.109375,37.59765625,37.59765625
3,1734036488404.7188,666.015625,-146.484375,-113.28125,-10.25390625
4,1734036488408.625,412.59765625,20.5078125,22.4609375,-25.87890625
5,1734036488412.5312,132.32421875,157.71484375,136.71875,-29.78515625
6,1734036488416.4375,173.33984375,-298.33984375,-114.74609375,-20.01953125
7,1734036488420.3438,316.40625,-1000,-665.52734375,19.53125
8,1734036488424.25,305.17578125,-566.89453125,-256.34765625,3.90625
9,1734036488428.1562,195.3125,530.2734375,267.578125,-8.30078125
10,1734036488432.0625,234.86328125,442.3828125,144.53125,20.01953125
11,1734036488435.9688,498.046875,343.75,140.625,23.4375
0,1734036488439.875,485.83984375,551.26953125,182.6171875,16.11328125
1,1734036488443.7812,96.6796875,581.54296875,173.33984375,13.18359375
2,1734036488447.6875,-39.55078125,310.05859375,73.2421875,-20.5078125
3,1734036488451.5938,280.2734375,343.75,96.19140625,-16.11328125
4,1734036488455.5,488.28125,501.953125,128.90625,39.0625
5,1734036488459.4062,203.125,246.09375,66.40625,20.5078125
6,1734036488463.3125,-20.01953125,-398.92578125,-157.2265625,-2.44140625
7,1734036488467.2188,241.69921875,-412.59765625,-96.6796875,7.8125
8,1734036488471.125,626.953125,447.265625,196.77734375,6.34765625
9,1734036488475.0312,486.81640625,521.97265625,90.33203125,12.20703125
10,1734036488478.9375,246.58203125,117.67578125,-2.9296875,-1.953125
11,1734036488482.8438,443.359375,517.08984375,171.38671875,-18.5546875
0,1734036488486.75,811.03515625,825.68359375,193.359375,-2.9296875
1,1734036488490.6562,742.1875,461.9140625,55.6640625,11.23046875
2,1734036488494.5625,513.18359375,417.48046875,59.08203125,7.8125
3,1734036488498.4688,694.82421875,804.6875,196.2890625,1.46484375
4,1734036488502.375,945.80078125,890.625,208.0078125,6.8359375
5,1734036488506.2812,946.2890625,104.4921875,-130.37109375,2.9296875
6,1734036488510.1875,788.0859375,-332.03125,-252.44140625,-2.9296875
7,1734036488514.0938,833.0078125,228.515625,83.49609375,-2.9296875
8,1734036488518,968.26171875,419.43359375,131.34765625,24.4140625
9,1734036488521.9062,978.02734375,-172.36328125,-218.75,46.875
10,1734036488525.8125,879.39453125,-881.34765625,-453.61328125,51.7578125
11,1734036488529.7188,900.390625,217.28515625,119.140625,51.26953125
0,1734036488533.625,976.5625,959.9609375,238.76953125,15.625
1,1734036488537.5312,977.05078125,559.5703125,98.6328125,0.9765625
2,1734036488541.4375,939.94140625,539.0625,200.1953125,28.3203125
3,1734036488545.3438,853.515625,861.328125,261.71875,37.109375
4,1734036488549.25,917.48046875,906.73828125,192.87109375,39.55078125
5,1734036488553.1562,979.4921875,274.4140625,-22.4609375,41.50390625
6,1734036488557.0625,969.7265625,53.7109375,11.23046875,48.828125
7,1734036488560.9688,940.4296875,660.15625,241.2109375,37.59765625
8,1734036488564.875,946.2890625,843.75,203.125,17.578125
9,1734036488568.7812,974.12109375,125.48828125,-78.61328125,34.66796875
10,1734036488572.6875,973.14453125,205.56640625,26.3671875,44.921875
11,1734036488576.5938,948.73046875,654.296875,267.578125,20.5078125
0,1734036488580.5,949.21875,473.14453125,122.0703125,36.62109375
1,1734036488584.4062,974.12109375,194.3359375,-8.7890625,30.76171875
2,1734036488588.3125,969.7265625,557.12890625,221.19140625,4.39453125
3,1734036488592.2188,972.16796875,876.953125,291.9921875,15.625
4,1734036488596.125,963.37890625,627.44140625,169.43359375,10.7421875
5,1734036488600.0312,963.37890625,239.74609375,76.66015625,18.5546875
6,1734036488603.9375,971.6796875,187.01171875,120.60546875,51.26953125
7,1734036488607.8438,970.21484375,328.61328125,206.0546875,52.24609375
8,1734036488611.75,970.703125,41.9921875,34.1796875,25.87890625
9,1734036488615.6562,969.7265625,-701.66015625,-259.765625,41.9921875
10,1734036488619.5625,970.21484375,115.72265625,132.32421875,53.22265625
11,1734036488623.4688,970.703125,943.359375,315.91796875,54.19921875
0,1734036488627.375,970.703125,801.26953125,277.34375,47.36328125
1,1734036488631.2812,970.21484375,755.859375,281.73828125,29.296875
2,1734036488635.1875,970.21484375,833.984375,268.5546875,24.4140625
3,1734036488639.0938,973.14453125,937.01171875,249.0234375,29.78515625
4,1734036488643,950.68359375,535.15625,122.55859375,28.80859375
5,1734036488646.9062,954.58984375,410.64453125,169.921875,18.5546875
6,1734036488650.8125,973.6328125,611.81640625,201.171875,26.85546875
7,1734036488654.7188,973.14453125,771.484375,223.6328125,36.1328125
8,1734036488658.625,953.61328125,35.15625,-30.2734375,42.48046875
9,1734036488662.5312,953.125,106.4453125,59.08203125,20.99609375
10,1734036488666.4375,974.12109375,999.51171875,422.8515625,-6.34765625
11,1734036488670.3438,969.7265625,779.296875,216.30859375,16.6015625
0,1734036488674.25,970.703125,669.921875,185.546875,9.765625
1,1734036488678.1562,970.703125,960.9375,351.5625,6.34765625
2,1734036488682.0625,970.21484375,998.53515625,350.09765625,8.30078125
3,1734036488685.9688,970.21484375,661.62109375,147.4609375,2.9296875
4,1734036488689.875,970.703125,452.1484375,107.91015625,3.41796875
5,1734036488693.7812,970.703125,567.87109375,229.00390625,0.48828125
6,1734036488697.6875,970.703125,663.57421875,254.39453125,-3.90625
7,1734036488701.5938,970.703125,303.22265625,60.05859375,-10.7421875
8,1734036488705.5,970.703125,-918.9453125,-465.33203125,9.765625
9,1734036488709.4062,970.703125,-326.66015625,-94.23828125,16.11328125
10,1734036488713.3125,970.703125,999.51171875,395.01953125,-0.9765625
11,1734036488717.2188,970.703125,840.8203125,299.31640625,-29.78515625
0,1734036488721.125,970.703125,794.921875,265.13671875,-51.26953125
1,1734036488725.0312,970.703125,980.95703125,305.6640625,-50.29296875
2,1734036488728.9375,970.703125,912.109375,276.3671875,-77.1484375
3,1734036488732.8438,970.703125,742.1875,232.91015625,-77.1484375
4,1734036488736.75,966.796875,725.09765625,206.0546875,-43.9453125
5,1734036488740.6562,980.95703125,456.54296875,118.1640625,-58.10546875
6,1734036488744.5625,923.33984375,397.94921875,195.80078125,-75.1953125
7,1734036488748.4688,873.046875,-355.95703125,-198.73046875,-69.3359375
8,1734036488752.375,947.75390625,-741.2109375,-354.00390625,-77.63671875
9,1734036488756.2812,999.51171875,390.625,162.109375,-95.703125
10,1734036488760.1875,857.91015625,518.5546875,136.71875,-102.05078125
11,1734036488764.0938,771.97265625,278.3203125,27.34375,-113.76953125
0,1734036488768,940.91796875,494.62890625,111.328125,-117.67578125
1,1734036488771.9062,992.67578125,521.97265625,126.953125,-99.609375
2,1734036488775.8125,906.25,196.2890625,-10.7421875,-121.58203125
3,1734036488779.7188,897.4609375,113.28125,-27.83203125,-141.6015625
4,1734036488783.625,960.44921875,339.35546875,59.5703125,-138.671875
5,1734036488787.5312,999.51171875,-106.4453125,-216.796875,-151.3671875
6,1734036488791.4375,864.2578125,-700.1953125,-505.859375,-146.97265625
7,1734036488795.3438,607.91015625,-964.35546875,-601.07421875,-144.53125
8,1734036488799.25,795.41015625,-582.51953125,-341.796875,-157.71484375
9,1734036488803.1562,999.51171875,-448.73046875,-348.6328125,-146.484375
10,1734036488807.0625,880.37109375,-872.55859375,-642.08984375,-131.8359375
11,1734036488810.9688,619.62890625,-779.296875,-594.7265625,-133.7890625
0,1734036488814.875,609.86328125,-215.33203125,-267.578125,-175.78125
1,1734036488818.7812,872.55859375,-336.42578125,-416.015625,-185.05859375
2,1734036488822.6875,923.828125,-769.04296875,-559.08203125,-162.59765625
3,1734036488826.5938,524.90234375,-648.92578125,-429.19921875,-162.59765625
4,1734036488830.5,305.17578125,-519.53125,-429.6875,-180.6640625
5,1734036488834.4062,564.453125,-882.32421875,-631.34765625,-144.04296875
6,1734036488838.3125,735.83984375,-1000,-740.72265625,-118.65234375
7,1734036488842.2188,400.390625,-915.0390625,-607.421875,-166.015625
8,1734036488846.125,100.5859375,-818.84765625,-512.6953125,-168.9453125
9,1734036488850.0312,252.44140625,-902.83203125,-666.50390625,-154.78515625
10,1734036488853.9375,634.27734375,-1000,-822.75390625,-136.71875
11,1734036488857.8438,412.59765625,-997.0703125,-768.06640625,-126.953125
0,1734036488861.75,-19.04296875,-997.55859375,-664.55078125,-143.5546875
1,1734036488865.6562,38.0859375,-1000,-770.5078125,-129.39453125
2,1734036488869.5625,452.1484375,-1000,-895.01953125,-119.62890625
3,1734036488873.4688,543.9453125,-1000,-773.92578125,-125
4,1734036488877.375,90.33203125,-1000,-738.76953125,-101.07421875
5,1734036488881.2812,-102.05078125,-1000,-860.83984375,-99.12109375
6,1734036488885.1875,263.671875,-1000,-912.109375,-112.3046875
7,1734036488889.0938,530.2734375,-1000,-847.16796875,-108.3984375
8,1734036488893,61.5234375,-1000,-795.41015625,-111.328125
9,1734036488896.9062,-286.62109375,-1000,-808.59375,-87.890625
10,1734036488900.8125,4.8828125,-1000,-824.70703125,-84.47265625
11,1734036488904.7188,424.8046875,-1000,-784.1796875,-79.58984375
0,1734036488908.625,82.03125,-1000,-787.59765625,-65.4296875
1,1734036488912.5312,-351.07421875,-1000,-835.44921875,-64.453125
2,1734036488916.4375,-149.90234375,-1000,-802.24609375,-76.171875
3,1734036488920.3438,327.63671875,-1000,-778.80859375,-81.54296875
4,1734036488924.25,221.19140625,-1000,-780.76171875,-82.51953125
5,1734036488928.1562,-328.61328125,-1000,-887.6953125,-86.9140625
6,1734036488932.0625,-298.828125,-1000,-883.7890625,-80.56640625
7,1734036488935.9688,362.79296875,-1000,-735.83984375,-75.1953125
8,1734036488939.875,446.77734375,-1000,-814.453125,-41.50390625
9,1734036488943.7812,-64.94140625,-1000,-796.38671875,-39.55078125
10,1734036488947.6875,-163.57421875,-1000,-679.6875,-36.62109375
11,1734036488951.5938,145.99609375,-1000,-705.56640625,-24.90234375
0,1734036488955.5,321.77734375,-1000,-816.40625,-28.80859375
1,1734036488959.4062,-61.5234375,-1000,-787.59765625,-35.15625
2,1734036488963.3125,-331.54296875,-1000,-677.734375,-24.90234375
3,1734036488967.2188,-64.94140625,-1000,-687.5,-12.20703125
4,1734036488971.125,183.10546875,-1000,-840.33203125,-8.30078125
5,1734036488975.0312,-144.53125,-1000,-854.98046875,21.484375
6,1734036488978.9375,-454.58984375,-1000,-687.01171875,15.625
7,1734036488982.8438,-339.35546875,-999.51171875,-671.875,-10.25390625
8,1734036488986.75,0.48828125,-998.53515625,-851.07421875,-15.13671875
9,1734036488990.6562,-90.8203125,-1000,-870.1171875,-29.78515625
10,1734036488994.5625,-439.94140625,-952.63671875,-542.96875,-26.3671875
11,1734036488998.4688,-463.8671875,-920.8984375,-514.16015625,-19.53125
0,1734036489002.375,-115.72265625,-989.74609375,-675.29296875,-9.765625
1,1734036489006.2812,110.83984375,-1000,-606.93359375,-2.9296875
2,1734036489010.1875,-205.56640625,-875.48828125,-470.703125,1.953125
3,1734036489014.0938,-448.73046875,-843.26171875,-491.2109375,-7.8125
4,1734036489018,-227.5390625,-988.28125,-625.9765625,-44.43359375
5,1734036489021.9062,-42.48046875,-1000,-714.35546875,-60.05859375
6,1734036489025.8125,-437.98828125,-995.1171875,-670.41015625,-43.9453125
7,1734036489029.7188,-800.29296875,-1000,-604.98046875,-49.31640625
8,1734036489033.625,-761.23046875,-999.51171875,-797.8515625,-53.22265625
9,1734036489037.5312,-370.1171875,-1000,-812.98828125,-64.453125
10,1734036489041.4375,-477.5390625,-980.95703125,-538.57421875,-67.87109375
11,1734036489045.3438,-963.37890625,-974.12109375,-619.62890625,-59.08203125
0,1734036489049.25,-890.625,-991.2109375,-703.125,-79.1015625
1,1734036489053.1562,-458.49609375,-990.234375,-615.234375,-69.82421875
2,1734036489057.0625,-497.55859375,-1000,-637.6953125,-63.96484375
3,1734036489060.9688,-932.6171875,-998.046875,-653.3203125,-87.890625
4,1734036489064.875,-901.85546875,-993.1640625,-662.59765625,-78.61328125
5,1734036489068.7812,-426.26953125,-998.53515625,-784.66796875,-71.2890625
6,1734036489072.6875,41.9921875,-1000,-802.24609375,-64.453125
7,1734036489076.5938,-139.16015625,-1000,-820.3125,-41.015625
8,1734036489080.5,-455.078125,-1000,-907.2265625,-38.0859375
9,1734036489084.4062,-93.75,-999.0234375,-762.20703125,-61.03515625
10,1734036489088.3125,347.65625,-1000,-716.796875,-98.14453125
11,1734036489092.2188,-9.27734375,-997.55859375,-749.51171875,-108.3984375
0,1734036489096.125,-318.359375,-975.5859375,-627.9296875,-82.51953125
1,1734036489100.0312,41.50390625,-980.46875,-591.796875,-83.984375
2,1734036489103.9375,586.9140625,-1000,-717.7734375,-109.375
3,1734036489107.8438,572.265625,-995.1171875,-720.703125,-77.1484375
4,1734036489111.75,249.51171875,-977.05078125,-602.5390625,-68.359375
5,1734036489115.6562,360.83984375,-995.60546875,-698.73046875,-112.79296875
6,1734036489119.5625,814.453125,-999.0234375,-796.38671875,-119.140625
7,1734036489123.4688,900.87890625,-1000,-773.92578125,-89.84375
8,1734036489127.375,670.41015625,-904.296875,-579.1015625,-58.10546875
9,1734036489131.2812,781.73828125,-752.44140625,-466.796875,-51.26953125
10,1734036489135.1875,951.171875,-862.3046875,-634.27734375,-54.19921875
11,1734036489139.0938,991.2109375,-1000,-762.20703125,-65.4296875
0,1734036489143,884.27734375,-898.4375,-545.41015625,-49.8046875
1,1734036489146.9062,762.6953125,-623.53515625,-380.37109375,-29.78515625
2,1734036489150.8125,883.30078125,-751.46484375,-597.65625,-16.6015625
3,1734036489154.7188,999.51171875,-986.81640625,-730.95703125,-5.859375
4,1734036489158.625,881.34765625,-803.22265625,-487.3046875,-9.27734375
5,1734036489162.5312,624.51171875,-871.58203125,-488.28125,35.15625
6,1734036489166.4375,678.7109375,-999.51171875,-655.76171875,46.38671875
7,1734036489170.3438,945.80078125,-1000,-818.359375,-13.671875
8,1734036489174.25,905.76171875,-910.64453125,-516.6015625,-0.48828125
9,1734036489178.1562,599.12109375,-443.84765625,-314.453125,37.109375
10,1734036489182.0625,489.74609375,-574.21875,-475.5859375,7.8125
11,1734036489185.9688,813.4765625,-736.81640625,-472.16796875,-30.2734375
0,1734036489189.875,917.48046875,-363.28125,-347.65625,-17.578125
1,1734036489193.7812,512.6953125,-253.41796875,-354.4921875,-7.8125
2,1734036489197.6875,381.34765625,-510.25390625,-434.5703125,6.8359375
3,1734036489201.5938,742.67578125,-449.21875,-373.046875,1.953125
4,1734036489205.5,989.2578125,-218.26171875,-385.25390625,-18.06640625
5,1734036489209.4062,631.34765625,-478.515625,-469.23828125,-3.90625
6,1734036489213.3125,337.890625,-714.35546875,-442.87109375,-17.08984375
7,1734036489217.2188,632.32421875,-371.58203125,-354.98046875,-24.90234375
8,1734036489221.125,999.51171875,-8.7890625,-310.546875,-34.1796875
9,1734036489225.0312,788.57421875,-81.54296875,-363.28125,-20.5078125
10,1734036489228.9375,122.55859375,-622.0703125,-503.41796875,6.34765625
11,1734036489232.8438,127.9296875,-283.203125,-294.43359375,-6.8359375
0,1734036489236.75,790.0390625,314.453125,-214.84375,3.41796875
1,1734036489240.6562,739.2578125,-33.203125,-396.484375,18.06640625
2,1734036489244.5625,316.89453125,28.80859375,-313.96484375,20.01953125
3,1734036489248.4688,329.1015625,536.1328125,-76.171875,24.90234375
4,1734036489252.375,685.546875,352.5390625,-214.84375,2.44140625
5,1734036489256.2812,801.7578125,-385.25390625,-508.30078125,16.11328125
6,1734036489260.1875,394.04296875,-774.4140625,-566.89453125,46.875
7,1734036489264.0938,329.1015625,-138.671875,-267.578125,25.87890625
8,1734036489268,721.19140625,533.203125,-145.01953125,24.90234375
9,1734036489271.9062,923.33984375,-114.2578125,-469.23828125,16.11328125
10,1734036489275.8125,567.87109375,-493.1640625,-425.29296875,22.94921875
11,1734036489279.7188,319.82421875,702.63671875,120.1171875,26.85546875
0,1734036489283.625,467.7734375,919.921875,48.828125,13.671875
1,1734036489287.5312,789.55078125,384.27734375,-242.1875,7.8125
2,1734036489291.4375,537.59765625,415.52734375,-217.7734375,13.18359375
3,1734036489295.3438,62.01171875,818.359375,24.90234375,14.6484375
4,1734036489299.25,76.66015625,758.30078125,-4.39453125,-2.44140625
5,1734036489303.1562,353.515625,-13.671875,-343.26171875,-19.53125
6,1734036489307.0625,291.015625,-366.2109375,-419.921875,-41.9921875
7,1734036489310.9688,-147.4609375,5.37109375,-253.41796875,-51.26953125
8,1734036489314.875,-209.9609375,300.29296875,-220.703125,-49.31640625
9,1734036489318.7812,95.703125,-453.61328125,-566.89453125,-41.015625
10,1734036489322.6875,291.015625,-560.546875,-468.26171875,-27.83203125
11,1734036489326.5938,-36.62109375,389.6484375,-128.41796875,-29.296875
0,1734036489330.5,-338.8671875,278.3203125,-258.30078125,-37.109375
1,1734036489334.4062,-66.89453125,-20.01953125,-383.30078125,-48.33984375
2,1734036489338.3125,312.98828125,101.5625,-296.38671875,-50.78125
3,1734036489342.2188,-17.08984375,239.2578125,-236.328125,-16.11328125
4,1734036489346.125,-458.49609375,-9.765625,-287.109375,7.8125
5,1734036489350.0312,-281.25,-458.984375,-399.4140625,-22.94921875
6,1734036489353.9375,189.94140625,-539.55078125,-455.078125,-46.875
7,1734036489357.8438,44.921875,-527.34375,-420.41015625,-6.8359375
8,1734036489361.75,-446.2890625,-643.06640625,-467.7734375,31.73828125
9,1734036489365.6562,-485.3515625,-1000,-791.9921875,10.25390625
10,1734036489369.5625,42.48046875,-749.51171875,-583.984375,-21.97265625
11,1734036489373.4688,198.73046875,-85.44921875,-271.484375,-5.859375
0,1734036489377.375,-287.109375,-88.8671875,-291.9921875,0.9765625
1,1734036489381.2812,-398.4375,39.0625,-209.47265625,-31.25
2,1734036489385.1875,-61.03515625,40.52734375,-274.4140625,-35.15625
3,1734036489389.0938,169.43359375,-250.9765625,-347.16796875,-17.08984375
4,1734036489393,-188.96484375,-310.05859375,-330.078125,16.11328125
5,1734036489396.9062,-500.9765625,-377.9296875,-339.35546875,17.08984375
6,1734036489400.8125,-254.39453125,-467.7734375,-322.75390625,-29.296875
7,1734036489404.7188,123.53515625,-512.20703125,-401.3671875,-54.6875
8,1734036489408.625,-187.98828125,-774.90234375,-517.08984375,-24.4140625
9,1734036489412.5312,-527.83203125,-434.5703125,-261.71875,-7.8125
10,1734036489416.4375,-302.24609375,125.48828125,-152.34375,-17.578125
11,1734036489420.3438,105.95703125,-400.87890625,-456.54296875,-22.94921875
0,1734036489424.25,-33.69140625,-750.48828125,-525.87890625,-27.34375
1,1734036489428.1562,-513.18359375,-202.63671875,-242.1875,-21.97265625
2,1734036489432.0625,-528.3203125,14.6484375,-210.44921875,-9.765625
3,1734036489435.9688,-164.55078125,-488.76953125,-434.08203125,-10.25390625
4,1734036489439.875,-84.47265625,-814.453125,-526.3671875,-31.25
5,1734036489443.7812,-526.3671875,-626.46484375,-410.15625,-31.25
6,1734036489447.6875,-691.40625,-702.63671875,-359.86328125,-39.55078125
7,1734036489451.5938,-355.95703125,-889.6484375,-595.21484375,-55.17578125
8,1734036489455.5,-102.5390625,-1000,-778.80859375,-48.828125
9,1734036489459.4062,-297.8515625,-603.02734375,-343.26171875,-38.57421875
10,1734036489463.3125,-509.27734375,-145.01953125,-218.26171875,-5.859375
11,1734036489467.2188,-348.6328125,-463.8671875,-383.7890625,-2.9296875
0,1734036489471.125,49.31640625,-656.25,-383.30078125,-45.41015625
1,1734036489475.0312,-157.71484375,-469.7265625,-337.890625,-47.36328125
2,1734036489478.9375,-572.265625,-673.33984375,-394.53125,-29.78515625
3,1734036489482.8438,-427.734375,-860.83984375,-445.3125,-10.7421875
4,1734036489486.75,25.87890625,-778.3203125,-421.38671875,-20.99609375
5,1734036489490.6562,-30.2734375,-897.94921875,-449.70703125,-32.2265625
6,1734036489494.5625,-487.79296875,-978.02734375,-437.98828125,4.39453125
7,1734036489498.4688,-541.50390625,-935.546875,-498.046875,12.20703125
8,1734036489502.375,-116.69921875,-754.8828125,-411.62109375,-29.78515625
9,1734036489506.2812,80.56640625,-495.60546875,-303.7109375,-41.015625
10,1734036489510.1875,-399.4140625,-621.58203125,-381.8359375,-10.7421875
11,1734036489514.0938,-652.83203125,-737.3046875,-420.41015625,2.9296875
0,1734036489518,-359.86328125,-487.79296875,-325.1953125,-13.671875
1,1734036489521.9062,-67.87109375,-498.046875,-344.23828125,-27.34375
2,1734036489525.8125,-423.828125,-753.90625,-432.12890625,23.92578125
3,1734036489529.7188,-796.875,-729.4921875,-401.85546875,15.625
4,1734036489533.625,-622.0703125,-634.27734375,-382.8125,-24.90234375
5,1734036489537.5312,-234.86328125,-968.26171875,-509.27734375,-30.2734375
6,1734036489541.4375,-459.9609375,-1000,-630.859375,-27.83203125
7,1734036489545.3438,-996.58203125,-1000,-759.765625,-6.34765625
8,1734036489549.25,-806.15234375,-845.21484375,-421.38671875,-19.53125
9,1734036489553.1562,-299.31640625,-638.18359375,-346.6796875,-61.5234375
10,1734036489557.0625,-436.03515625,-871.58203125,-542.96875,-54.19921875
11,1734036489560.9688,-909.66796875,-748.53515625,-366.2109375,-35.15625
0,1734036489564.875,-924.31640625,-347.65625,-228.02734375,-36.1328125
1,1734036489568.7812,-565.91796875,-549.31640625,-400.87890625,-33.69140625
2,1734036489572.6875,-416.50390625,-903.3203125,-502.44140625,-46.875
3,1734036489576.5938,-787.109375,-638.18359375,-326.66015625,-52.734375
4,1734036489580.5,-1000,-401.3671875,-275.390625,-37.59765625
5,1734036489584.4062,-769.53125,-783.203125,-463.37890625,-47.8515625
6,1734036489588.3125,-454.1015625,-1000,-673.33984375,-24.90234375
7,1734036489592.2188,-707.03125,-955.56640625,-528.80859375,13.18359375
8,1734036489596.125,-986.81640625,-706.0546875,-288.0859375,16.6015625
9,1734036489600.0312,-813.96484375,-674.8046875,-406.73828125,14.6484375
10,1734036489603.9375,-417.96875,-940.4296875,-580.56640625,-39.55078125
11,1734036489607.8438,-511.71875,-809.08203125,-403.3203125,-41.9921875
0,1734036489611.75,-974.12109375,-480.46875,-255.37109375,-25.87890625
1,1734036489615.6562,-890.13671875,-644.53125,-416.9921875,-27.34375
2,1734036489619.5625,-346.6796875,-955.078125,-554.19921875,-28.80859375
3,1734036489623.4688,-247.0703125,-829.58984375,-419.921875,-0.48828125
4,1734036489627.375,-756.8359375,-753.41796875,-344.23828125,0.48828125
5,1734036489631.2812,-896.484375,-922.36328125,-556.15234375,-35.15625
6,1734036489635.1875,-465.33203125,-1000,-722.65625,-37.109375
7,1734036489639.0938,-155.76171875,-1000,-568.84765625,-15.13671875
8,1734036489643,-492.1875,-883.30078125,-448.2421875,-19.04296875
9,1734036489646.9062,-833.49609375,-826.171875,-456.0546875,-22.94921875
10,1734036489650.8125,-596.19140625,-830.078125,-446.2890625,-45.8984375
11,1734036489654.7188,-147.4609375,-823.2421875,-457.51953125,-93.75
0,1734036489658.625,-446.77734375,-896.97265625,-437.01171875,-96.6796875
1,1734036489662.5312,-962.40234375,-963.8671875,-648.92578125,-67.87109375
2,1734036489666.4375,-812.5,-947.265625,-698.73046875,-56.640625
3,1734036489670.3438,-267.578125,-892.578125,-443.359375,-46.38671875
4,1734036489674.25,-422.36328125,-966.796875,-493.1640625,-45.8984375
5,1734036489678.1562,-946.2890625,-1000,-570.80078125,-40.0390625
6,1734036489682.0625,-984.375,-984.86328125,-522.94921875,-30.76171875
7,1734036489685.9688,-625,-931.15234375,-452.1484375,-76.171875
8,1734036489689.875,-574.21875,-983.3984375,-557.12890625,-71.77734375
9,1734036489693.7812,-949.70703125,-997.0703125,-639.16015625,-34.66796875
10,1734036489697.6875,-1000,-829.1015625,-435.05859375,-43.9453125
11,1734036489701.5938,-807.6171875,-862.3046875,-451.66015625,-71.2890625
0,1734036489705.5,-644.04296875,-1000,-730.95703125,-59.08203125
1,1734036489709.4062,-919.921875,-967.28515625,-686.5234375,-5.37109375
2,1734036489713.3125,-1000,-873.046875,-411.1328125,-1.46484375
3,1734036489717.2188,-989.2578125,-910.15625,-441.40625,-24.90234375
4,1734036489721.125,-878.90625,-1000,-620.1171875,-47.8515625
5,1734036489725.0312,-907.2265625,-1000,-654.296875,-57.12890625
6,1734036489728.9375,-1000,-997.55859375,-552.734375,-38.0859375
7,1734036489732.8438,-977.05078125,-1000,-542.96875,-26.3671875
8,1734036489736.75,-698.73046875,-997.55859375,-759.765625,-33.69140625
9,1734036489740.6562,-750.48828125,-1000,-841.30859375,-38.0859375
10,1734036489744.5625,-1000,-921.38671875,-462.40234375,-18.06640625
11,1734036489748.4688,-1000,-877.9296875,-418.45703125,-7.32421875
0,1734036489752.375,-666.9921875,-989.74609375,-608.3984375,-55.6640625
1,1734036489756.2812,-437.5,-1000,-551.26953125,-63.4765625
2,1734036489760.1875,-818.84765625,-981.4453125,-493.65234375,-6.34765625
3,1734036489764.0938,-952.1484375,-961.9140625,-484.86328125,-7.8125
4,1734036489768,-604.98046875,-984.375,-629.39453125,-24.90234375
5,1734036489771.9062,-267.578125,-1000,-713.8671875,-8.7890625
6,1734036489775.8125,-529.78515625,-977.5390625,-536.62109375,-24.4140625
7,1734036489779.7188,-824.70703125,-929.19921875,-453.125,-46.875
8,1734036489783.625,-661.1328125,-984.86328125,-637.20703125,-29.78515625
9,1734036489787.5312,-164.55078125,-1000,-576.171875,-45.41015625
10,1734036489791.4375,-179.6875,-942.3828125,-427.24609375,-46.38671875
11,1734036489795.3438,-623.046875,-938.96484375,-490.72265625,-9.765625
0,1734036489799.25,-569.3359375,-963.8671875,-545.8984375,-12.20703125
1,1734036489803.1562,-80.56640625,-958.49609375,-479.4921875,-45.8984375
2,1734036489807.0625,-25.390625,-1000,-541.50390625,-33.69140625
3,1734036489810.9688,-471.19140625,-999.51171875,-575.68359375,-21.484375
4,1734036489814.875,-532.71484375,-994.140625,-540.0390625,-32.71484375
5,1734036489818.7812,-103.02734375,-1000,-579.58984375,-31.73828125
6,1734036489822.6875,140.13671875,-1000,-637.6953125,-23.4375
7,1734036489826.5938,-285.64453125,-996.09375,-670.41015625,-7.8125
8,1734036489830.5,-622.0703125,-1000,-889.6484375,-2.9296875
9,1734036489834.4062,-253.90625,-937.98828125,-695.3125,-24.90234375
10,1734036489838.3125,226.5625,-921.38671875,-462.40234375,-44.43359375
11,1734036489842.2188,-94.7265625,-993.1640625,-523.4375,-15.625
0,1734036489846.125,-450.68359375,-787.59765625,-394.53125,6.34765625
1,1734036489850.0312,-246.58203125,-723.6328125,-369.62890625,-7.8125
2,1734036489853.9375,142.08984375,-929.19921875,-519.53125,-43.45703125
3,1734036489857.8438,21.97265625,-993.65234375,-544.921875,-34.66796875
4,1734036489861.75,-366.69921875,-853.02734375,-416.50390625,-6.8359375
5,1734036489865.6562,-307.12890625,-914.0625,-488.28125,-16.6015625
6,1734036489869.5625,153.80859375,-1000,-568.359375,-24.90234375
7,1734036489873.4688,191.40625,-1000,-783.69140625,-18.5546875
8,1734036489877.375,-218.75,-912.109375,-671.875,-2.44140625
9,1734036489881.2812,-200.1953125,-594.7265625,-280.2734375,-19.53125
10,1734036489885.1875,186.03515625,-734.375,-460.44921875,-44.43359375
11,1734036489889.0938,477.05078125,-974.609375,-586.42578125,-35.64453125
0,1734036489893,178.7109375,-744.140625,-363.28125,3.41796875
1,1734036489896.9062,-134.27734375,-520.5078125,-280.2734375,-14.16015625
2,1734036489900.8125,112.3046875,-717.7734375,-444.82421875,-57.12890625
3,1734036489904.7188,577.1484375,-965.33203125,-524.4140625,-46.875
4,1734036489908.625,399.4140625,-767.08984375,-399.4140625,-20.99609375
5,1734036489912.5312,22.94921875,-838.8671875,-411.1328125,-11.71875
6,1734036489916.4375,71.77734375,-1000,-574.21875,-25.390625
7,1734036489920.3438,421.38671875,-1000,-773.92578125,-34.66796875
8,1734036489924.25,458.49609375,-864.2578125,-481.93359375,-29.78515625
9,1734036489928.1562,-9.765625,-698.73046875,-293.9453125,-31.73828125
10,1734036489932.0625,-172.8515625,-948.73046875,-594.7265625,-12.20703125
11,1734036489935.9688,227.5390625,-933.10546875,-667.96875,-25.87890625
0,1734036489939.875,437.98828125,-706.54296875,-373.046875,-49.8046875
1,1734036489943.7812,-37.59765625,-587.40234375,-347.65625,-1.46484375
2,1734036489947.6875,-271.484375,-696.77734375,-398.4375,-4.8828125
3,1734036489951.5938,69.82421875,-687.5,-379.8828125,-56.15234375
4,1734036489955.5,370.1171875,-719.23828125,-442.3828125,-55.6640625
5,1734036489959.4062,0,-956.0546875,-495.1171875,-38.57421875
6,1734036489963.3125,-382.8125,-995.60546875,-569.82421875,-8.30078125
7,1734036489967.2188,-78.125,-765.13671875,-465.8203125,-15.13671875
8,1734036489971.125,402.83203125,-613.76953125,-375.48828125,-62.01171875
9,1734036489975.0312,196.2890625,-828.125,-479.4921875,-49.31640625
10,1734036489978.9375,-145.01953125,-801.26953125,-429.19921875,-21.484375
11,1734036489982.8438,-38.0859375,-578.61328125,-378.90625,-14.6484375
0,1734036489986.75,354.4921875,-807.6171875,-474.609375,-66.89453125
1,1734036489990.6562,323.73046875,-983.88671875,-597.65625,-92.7734375
2,1734036489994.5625,-142.578125,-867.67578125,-623.046875,-57.12890625
3,1734036489998.4688,-172.8515625,-563.96484375,-361.328125,-45.41015625
4,1734036490002.375,245.1171875,-703.125,-427.734375,-66.89453125
5,1734036490006.2812,300.78125,-1000,-727.05078125,-77.1484375
6,1734036490010.1875,-143.5546875,-980.46875,-710.44921875,-52.734375
7,1734036490014.0938,-74.21875,-958.984375,-487.79296875,-77.1484375
8,1734036490018,295.41015625,-994.140625,-546.38671875,-83.0078125
9,1734036490021.9062,426.26953125,-1000,-759.765625,-66.40625
10,1734036490025.8125,78.61328125,-921.38671875,-703.125,-53.22265625
11,1734036490029.7188,-130.859375,-658.203125,-377.9296875,-52.734375
0,1734036490033.625,51.26953125,-711.42578125,-460.9375,-68.84765625
1,1734036490037.5312,403.3203125,-966.796875,-643.06640625,-63.96484375
2,1734036490041.4375,216.30859375,-1000,-642.08984375,-56.640625
3,1734036490045.3438,-209.47265625,-937.01171875,-529.78515625,-63.4765625
4,1734036490049.25,-190.4296875,-905.76171875,-508.7890625,-80.078125
5,1734036490053.1562,87.40234375,-998.046875,-770.5078125,-83.49609375
6,1734036490057.0625,130.859375,-1000,-757.8125,-72.75390625
7,1734036490060.9688,-253.90625,-972.65625,-507.8125,-67.3828125
8,1734036490064.875,-411.1328125,-978.515625,-557.6171875,-24.90234375
9,1734036490068.7812,-103.515625,-1000,-717.28515625,-20.99609375
10,1734036490072.6875,134.27734375,-1000,-649.4140625,-55.17578125
11,1734036490076.5938,-274.4140625,-997.55859375,-527.34375,-60.546875
0,1734036490080.5,-632.32421875,-994.62890625,-620.60546875,-55.17578125
1,1734036490084.4062,-397.4609375,-1000,-719.7265625,-59.08203125
2,1734036490088.3125,-31.25,-1000,-642.578125,-72.265625
3,1734036490092.2188,-314.94140625,-1000,-585.44921875,-37.59765625
4,1734036490096.125,-715.33203125,-1000,-608.3984375,-7.8125
5,1734036490100.0312,-582.51953125,-1000,-710.9375,-36.1328125
6,1734036490103.9375,-129.39453125,-1000,-732.91015625,-70.80078125
7,1734036490107.8438,-158.203125,-1000,-707.51953125,-47.8515625
8,1734036490111.75,-589.84375,-1000,-738.28125,-16.11328125
9,1734036490115.6562,-667.96875,-1000,-917.48046875,-31.25
10,1734036490119.5625,-155.2734375,-998.046875,-789.0625,-65.91796875
11,1734036490123.4688,73.73046875,-1000,-568.84765625,-63.96484375
0,1734036490127.375,-386.71875,-992.67578125,-578.61328125,-46.38671875
1,1734036490131.2812,-516.6015625,-963.37890625,-508.30078125,-44.921875
2,1734036490135.1875,-150.390625,-987.3046875,-519.04296875,-58.59375
3,1734036490139.0938,126.953125,-1000,-618.1640625,-68.359375
4,1734036490143,-219.23828125,-998.53515625,-628.90625,-35.15625
5,1734036490146.9062,-499.0234375,-1000,-611.328125,-37.109375
6,1734036490150.8125,-228.02734375,-997.0703125,-618.65234375,-69.82421875
7,1734036490154.7188,185.05859375,-1000,-665.0390625,-63.96484375
8,1734036490158.625,-0.48828125,-991.69921875,-613.76953125,-61.5234375
9,1734036490162.5312,-304.19921875,-858.3984375,-443.84765625,-50.78125
10,1734036490166.4375,-134.27734375,-799.31640625,-410.64453125,-33.203125
11,1734036490170.3438,285.15625,-937.98828125,-625.48828125,-30.2734375
0,1734036490174.25,198.73046875,-1000,-790.52734375,-15.625
1,1734036490178.1562,-168.45703125,-837.890625,-464.35546875,-8.30078125
2,1734036490182.0625,-59.08203125,-600.09765625,-330.078125,-18.06640625
3,1734036490185.9688,342.28515625,-780.2734375,-522.94921875,-46.38671875
4,1734036490189.875,421.38671875,-1000,-616.69921875,-52.734375
5,1734036490193.7812,-23.92578125,-989.74609375,-558.59375,-20.99609375
6,1734036490197.6875,-208.984375,-994.140625,-490.234375,-9.27734375
7,1734036490201.5938,93.75,-1000,-667.96875,-20.99609375
8,1734036490205.5,290.0390625,-995.60546875,-837.40234375,-24.90234375
9,1734036490209.4062,40.0390625,-915.52734375,-483.88671875,22.94921875
10,1734036490213.3125,-182.12890625,-890.625,-405.2734375,20.01953125
11,1734036490217.2188,-51.7578125,-934.5703125,-543.9453125,-28.3203125
0,1734036490221.125,336.42578125,-868.1640625,-496.58203125,-21.97265625
1,1734036490225.0312,162.109375,-622.55859375,-377.9296875,-12.20703125
2,1734036490228.9375,-320.3125,-646.97265625,-389.16015625,1.953125
3,1734036490232.8438,-274.90234375,-825.68359375,-437.01171875,-3.90625
4,1734036490236.75,159.1796875,-823.2421875,-475.5859375,-29.78515625
5,1734036490240.6562,142.578125,-976.07421875,-556.640625,-29.78515625
6,1734036490244.5625,-368.65234375,-998.53515625,-515.13671875,-9.27734375
7,1734036490248.4688,-541.9921875,-959.47265625,-561.03515625,3.41796875
8,1734036490252.375,-116.69921875,-840.33203125,-485.3515625,-34.66796875
9,1734036490256.2812,151.85546875,-660.64453125,-388.18359375,-45.41015625
10,1734036490260.1875,-326.66015625,-761.23046875,-425.78125,11.71875
11,1734036490264.0938,-648.92578125,-823.2421875,-445.3125,15.625
0,1734036490268,-384.765625,-815.91796875,-445.3125,-31.25
1,1734036490271.9062,-28.3203125,-802.734375,-380.37109375,-52.734375
2,1734036490275.8125,-343.26171875,-833.984375,-522.4609375,-39.55078125
3,1734036490279.7188,-731.4453125,-843.75,-605.46875,-20.5078125
4,1734036490283.625,-473.6328125,-580.56640625,-379.8828125,-15.625
5,1734036490287.5312,-19.53125,-847.16796875,-492.67578125,-54.6875
6,1734036490291.4375,-152.34375,-1000,-666.015625,-37.59765625
7,1734036490295.3438,-585.9375,-1000,-721.19140625,13.18359375
8,1734036490299.25,-441.40625,-754.8828125,-408.203125,1.46484375
9,1734036490303.1562,69.3359375,-504.8828125,-357.91015625,-26.3671875
10,1734036490307.0625,61.5234375,-849.609375,-578.125,-21.97265625
11,1734036490310.9688,-373.53515625,-711.42578125,-428.7109375,-14.16015625
0,1734036490314.875,-424.31640625,-265.13671875,-246.58203125,-17.578125
1,1734036490318.7812,-67.87109375,-398.4375,-386.71875,-15.13671875
2,1734036490322.6875,145.99609375,-876.953125,-565.4296875,-13.671875
3,1734036490326.5938,-255.37109375,-818.359375,-417.96875,-4.8828125
4,1734036490330.5,-551.26953125,-374.51171875,-295.8984375,4.8828125
5,1734036490334.4062,-336.42578125,-660.15625,-425.78125,2.9296875
6,1734036490338.3125,-89.84375,-1000,-731.4453125,0
7,1734036490342.2188,-348.14453125,-838.8671875,-650.87890625,-5.859375
8,1734036490346.125,-605.46875,-276.3671875,-216.796875,-2.44140625
9,1734036490350.0312,-475.09765625,-320.3125,-337.890625,5.859375
10,1734036490353.9375,-83.984375,-761.71875,-500,-27.83203125
11,1734036490357.8438,-147.94921875,-627.9296875,-362.79296875,-35.64453125
0,1734036490361.75,-590.33203125,-302.24609375,-245.1171875,-0.48828125
1,1734036490365.6562,-650.87890625,-520.5078125,-386.71875,7.32421875
2,1734036490369.5625,-241.69921875,-866.2109375,-530.2734375,-10.25390625
3,1734036490373.4688,-102.5390625,-667.48046875,-396.484375,-16.11328125
4,1734036490377.375,-543.45703125,-514.6484375,-317.3828125,-15.625
5,1734036490381.2812,-738.76953125,-754.8828125,-514.16015625,-1.953125
6,1734036490385.1875,-437.01171875,-1000,-667.48046875,-24.4140625
7,1734036490389.0938,-115.72265625,-979.98046875,-533.203125,-50.29296875
8,1734036490393,-450.68359375,-962.890625,-430.6640625,-18.06640625
9,1734036490396.9062,-818.84765625,-995.1171875,-582.51953125,-8.7890625
10,1734036490400.8125,-666.9921875,-992.1875,-754.39453125,-17.578125
11,1734036490404.7188,-154.78515625,-818.359375,-449.21875,-20.99609375
0,1734036490408.625,-295.41015625,-606.4453125,-342.7734375,10.25390625
1,1734036490412.5312,-746.58203125,-731.4453125,-406.73828125,12.20703125
2,1734036490416.4375,-601.5625,-710.44921875,-352.5390625,-17.08984375
3,1734036490420.3438,-148.92578125,-596.6796875,-366.2109375,-40.52734375
4,1734036490424.25,-155.2734375,-752.44140625,-437.01171875,-32.2265625
5,1734036490428.1562,-580.56640625,-928.7109375,-487.79296875,11.23046875
6,1734036490432.0625,-583.0078125,-939.453125,-422.36328125,3.41796875
7,1734036490435.9688,-155.76171875,-915.52734375,-459.9609375,-27.34375
8,1734036490439.875,-1.953125,-988.28125,-561.03515625,-38.0859375
9,1734036490443.7812,-449.70703125,-1000,-660.64453125,-16.11328125
10,1734036490447.6875,-625.48828125,-781.25,-482.421875,-3.41796875
11,1734036490451.5938,-253.90625,-508.7890625,-275.390625,-43.9453125
0,1734036490455.5,57.6171875,-821.2890625,-507.8125,-74.70703125
1,1734036490459.4062,-275.87890625,-886.71875,-503.90625,-51.26953125
2,1734036490463.3125,-590.8203125,-509.27734375,-278.80859375,-21.97265625
3,1734036490467.2188,-332.51953125,-446.2890625,-292.96875,-30.2734375
4,1734036490471.125,-8.30078125,-780.2734375,-492.1875,-51.7578125
5,1734036490475.0312,-249.0234375,-1000,-584.9609375,-27.83203125
6,1734036490478.9375,-592.7734375,-973.14453125,-476.07421875,-22.94921875
7,1734036490482.8438,-508.7890625,-969.7265625,-416.50390625,-45.41015625
8,1734036490486.75,-140.13671875,-987.79296875,-646.484375,-57.6171875
9,1734036490490.6562,-148.92578125,-1000,-822.265625,-29.296875
10,1734036490494.5625,-484.375,-959.47265625,-453.61328125,10.7421875
11,1734036490498.4688,-524.4140625,-627.44140625,-298.33984375,-20.01953125
0,1734036490502.375,-175.78125,-753.90625,-522.4609375,-57.12890625
1,1734036490506.2812,73.2421875,-962.40234375,-500,-37.59765625
2,1734036490510.1875,-365.72265625,-719.7265625,-346.19140625,-26.85546875
3,1734036490514.0938,-679.6875,-593.75,-340.8203125,-5.37109375
4,1734036490518,-393.06640625,-833.49609375,-472.16796875,1.46484375
5,1734036490521.9062,-81.0546875,-1000,-584.9609375,-25.390625
6,1734036490525.8125,-373.046875,-964.84375,-458.984375,-21.97265625
7,1734036490529.7188,-704.58984375,-819.3359375,-363.28125,-11.71875
8,1734036490533.625,-612.3046875,-896.97265625,-550.29296875,-15.13671875
9,1734036490537.5312,-175.29296875,-975.09765625,-520.01953125,-54.19921875
10,1734036490541.4375,-221.19140625,-812.98828125,-369.62890625,-57.12890625
11,1734036490545.3438,-680.17578125,-792.96875,-422.36328125,-16.6015625
0,1734036490549.25,-645.01953125,-988.28125,-547.36328125,-2.44140625
1,1734036490553.1562,-189.94140625,-968.75,-496.58203125,-37.109375
2,1734036490557.0625,-84.47265625,-877.44140625,-400.87890625,-44.43359375
3,1734036490560.9688,-552.734375,-913.57421875,-527.34375,-27.83203125
4,1734036490564.875,-695.80078125,-899.4140625,-624.51171875,-34.66796875
5,1734036490568.7812,-265.13671875,-888.18359375,-500.48828125,-70.3125
6,1734036490572.6875,19.04296875,-1000,-541.015625,-71.2890625
7,1734036490576.5938,-405.76171875,-999.51171875,-663.57421875,-16.11328125
8,1734036490580.5,-742.67578125,-1000,-766.6015625,-2.44140625
9,1734036490584.4062,-392.08984375,-848.14453125,-446.77734375,-37.109375
10,1734036490588.3125,27.83203125,-810.05859375,-428.22265625,-47.8515625
11,1734036490592.2188,-254.8828125,-945.3125,-516.6015625,-24.90234375
0,1734036490596.125,-644.04296875,-728.02734375,-370.60546875,-15.13671875
1,1734036490600.0312,-465.33203125,-570.80078125,-345.703125,-45.8984375
2,1734036490603.9375,-8.7890625,-838.37890625,-508.7890625,-78.125
3,1734036490607.8438,-121.09375,-987.79296875,-581.54296875,-69.3359375
4,1734036490611.75,-570.80078125,-794.921875,-422.36328125,-50.29296875
5,1734036490615.6562,-576.171875,-891.6015625,-483.3984375,-29.78515625
6,1734036490619.5625,-159.1796875,-1000,-579.58984375,-40.0390625
7,1734036490623.4688,-92.7734375,-1000,-759.27734375,-38.0859375
8,1734036490627.375,-540.0390625,-900.87890625,-636.23046875,-10.7421875
9,1734036490631.2812,-625,-610.83984375,-318.84765625,-15.13671875
10,1734036490635.1875,-319.82421875,-750.9765625,-495.60546875,-36.1328125
11,1734036490639.0938,-69.3359375,-1000,-628.90625,-62.5
0,1734036490643,-392.08984375,-873.046875,-448.73046875,-35.64453125
1,1734036490646.9062,-688.96484375,-679.19921875,-345.21484375,-26.3671875
2,1734036490650.8125,-492.1875,-819.82421875,-521.484375,-43.9453125
3,1734036490654.7188,-108.3984375,-992.67578125,-626.46484375,-30.76171875
4,1734036490658.625,-270.5078125,-939.453125,-499.51171875,-4.8828125
5,1734036490662.5312,-680.6640625,-983.3984375,-498.046875,0.48828125
6,1734036490666.4375,-621.09375,-1000,-633.7890625,-19.04296875
7,1734036490670.3438,-261.71875,-993.1640625,-835.9375,-52.24609375
8,1734036490674.25,-225.09765625,-1000,-653.80859375,-33.69140625
9,1734036490678.1562,-588.8671875,-841.796875,-395.99609375,-9.765625
10,1734036490682.0625,-739.74609375,-836.9140625,-593.75,-12.20703125
11,1734036490685.9688,-400.390625,-984.375,-738.76953125,-20.01953125
0,1734036490689.875,-126.46484375,-849.609375,-457.03125,-29.296875
1,1734036490693.7812,-542.96875,-745.1171875,-424.31640625,-3.41796875
2,1734036490697.6875,-800.78125,-845.703125,-497.0703125,-4.39453125
3,1734036490701.5938,-477.5390625,-887.6953125,-465.8203125,-42.96875
4,1734036490705.5,-146.97265625,-925.29296875,-526.85546875,-54.6875
5,1734036490709.4062,-446.2890625,-1000,-577.1484375,-27.83203125
