index,unixTimestamp,TP9,AF7,AF8,TP10
0,1734116429805.5,0,0,0,0
1,1734116429809.4062,0,-0.48828125,-0.9765625,0
2,1734116429813.3125,-1.46484375,-1.46484375,4.8828125,-1.46484375
3,1734116429817.2188,2.44140625,2.9296875,-16.11328125,1.46484375
4,1734116429821.125,-12.20703125,-19.04296875,48.828125,-7.8125
5,1734116429825.0312,-38.0859375,-42.96875,41.9921875,-34.1796875
6,1734116429828.9375,-25.87890625,-20.99609375,-89.84375,-38.57421875
7,1734116429832.8438,-8.30078125,-12.6953125,-72.265625,-13.671875
8,1734116429836.75,-12.6953125,-30.76171875,-46.38671875,0.9765625
9,1734116429840.6562,-28.3203125,-17.08984375,-44.921875,-2.44140625
10,1734116429844.5625,-33.203125,6.8359375,-33.203125,-18.5546875
11,1734116429848.4688,-21.484375,-0.48828125,-26.3671875,-15.13671875
0,1734116429852.375,-16.11328125,-8.30078125,-32.71484375,-10.7421875
1,1734116429856.2812,-20.5078125,0,-27.34375,-26.3671875
2,1734116429860.1875,-24.90234375,-3.90625,-20.5078125,-19.53125
3,1734116429864.0938,-10.25390625,-9.27734375,-28.3203125,9.27734375
4,1734116429868,6.8359375,-7.32421875,-34.1796875,20.99609375
5,1734116429871.9062,-1.46484375,-9.765625,-25.390625,-5.859375
6,1734116429875.8125,-7.32421875,-16.11328125,-26.3671875,-29.296875
7,1734116429879.7188,1.46484375,-22.94921875,-17.578125,-17.08984375
8,1734116429883.625,10.25390625,-45.8984375,-9.27734375,20.5078125
9,1734116429887.5312,-12.20703125,-2.44140625,-21.484375,12.6953125
10,1734116429891.4375,-31.73828125,24.90234375,-19.04296875,-35.64453125
11,1734116429895.3438,-26.3671875,0,-20.5078125,-50.29296875
0,1734116429899.25,-28.80859375,0.48828125,-20.01953125,-26.3671875
1,1734116429903.1562,-35.15625,3.41796875,-9.765625,-22.4609375
2,1734116429907.0625,-38.57421875,-7.32421875,-18.5546875,-25.390625
3,1734116429910.9688,-29.78515625,-21.97265625,-27.34375,-3.41796875
4,1734116429914.875,-14.6484375,-16.11328125,-23.4375,-15.13671875
5,1734116429918.7812,-11.23046875,-25.390625,-24.4140625,-23.4375
6,1734116429922.6875,-12.6953125,-32.71484375,-28.80859375,-27.34375
7,1734116429926.5938,-3.41796875,-56.15234375,-24.4140625,-11.23046875
8,1734116429930.5,-7.32421875,-59.5703125,-16.11328125,-1.46484375
9,1734116429934.4062,-27.34375,6.34765625,-18.06640625,-31.73828125
10,1734116429938.3125,-27.83203125,0,-14.16015625,-49.31640625
11,1734116429942.2188,-4.39453125,-27.34375,-18.5546875,-16.6015625
0,1734116429946.125,-0.48828125,-2.44140625,-27.34375,4.8828125
1,1734116429950.0312,-6.8359375,8.30078125,-23.4375,-7.32421875
2,1734116429953.9375,-19.53125,-11.71875,-22.94921875,-38.57421875
3,1734116429957.8438,-27.34375,-20.99609375,-5.37109375,-58.59375
4,1734116429961.75,-7.8125,-17.578125,-16.6015625,-32.71484375
5,1734116429965.6562,9.27734375,-22.94921875,-32.71484375,-20.99609375
6,1734116429969.5625,-7.8125,-46.38671875,-4.8828125,-28.80859375
7,1734116429973.4688,-13.18359375,-61.5234375,-14.16015625,-4.39453125
8,1734116429977.375,-1.46484375,-11.23046875,-30.2734375,17.08984375
9,1734116429981.2812,-17.578125,-3.41796875,-27.34375,-15.13671875
10,1734116429985.1875,-22.94921875,-30.76171875,-27.34375,-32.71484375
11,1734116429989.0938,-24.4140625,-27.34375,-22.94921875,-44.921875
0,1734116429993,-26.3671875,-27.34375,-28.80859375,-32.71484375
1,1734116429996.9062,-27.34375,-24.90234375,-31.73828125,-28.80859375
2,1734116430000.8125,-5.859375,-40.0390625,-22.94921875,-12.6953125
3,1734116430004.7188,5.37109375,-27.83203125,-27.83203125,0
4,1734116430008.625,5.859375,-1.46484375,-28.3203125,-2.44140625
5,1734116430012.5312,4.39453125,-12.20703125,-21.97265625,-3.90625
6,1734116430016.4375,-3.90625,-38.57421875,-24.4140625,6.8359375
7,1734116430020.3438,-8.7890625,-38.0859375,-28.80859375,0
8,1734116430024.25,-18.06640625,2.9296875,-25.87890625,-29.78515625
9,1734116430028.1562,-12.20703125,6.8359375,-20.99609375,-28.80859375
10,1734116430032.0625,-6.8359375,-20.99609375,-26.3671875,-9.765625
11,1734116430035.9688,-21.97265625,-9.765625,-19.53125,-31.25
0,1734116430039.875,-20.01953125,16.11328125,-16.11328125,-38.57421875
1,1734116430043.7812,-7.8125,-2.9296875,-17.08984375,-13.671875
2,1734116430047.6875,12.20703125,-15.13671875,-17.08984375,-8.7890625
3,1734116430051.5938,0,-1.46484375,-24.4140625,-6.34765625
4,1734116430055.5,-31.73828125,9.27734375,-16.6015625,-20.99609375
5,1734116430059.4062,-16.11328125,-22.4609375,-13.18359375,-24.4140625
6,1734116430063.3125,8.7890625,-66.89453125,-24.90234375,0.48828125
7,1734116430067.2188,-12.20703125,-16.6015625,-14.6484375,-24.4140625
8,1734116430071.125,-31.73828125,33.203125,-12.6953125,-28.80859375
9,1734116430075.0312,-28.80859375,10.7421875,-20.5078125,0
10,1734116430078.9375,-25.390625,9.27734375,-19.04296875,-12.6953125
11,1734116430082.8438,-24.90234375,18.06640625,-20.99609375,-22.4609375
0,1734116430086.75,-31.73828125,8.7890625,-9.765625,-20.01953125
1,1734116430090.6562,-7.8125,-1.953125,-6.8359375,-2.44140625
2,1734116430094.5625,5.37109375,2.9296875,-19.53125,11.71875
3,1734116430098.4688,-23.4375,6.8359375,-16.6015625,-2.44140625
4,1734116430102.375,-26.85546875,-3.90625,-19.04296875,-9.765625
5,1734116430106.2812,-17.08984375,-22.94921875,-21.97265625,-13.671875
6,1734116430110.1875,-21.97265625,-21.97265625,-20.5078125,-29.78515625
7,1734116430114.0938,-15.13671875,-6.8359375,-21.97265625,-21.484375
8,1734116430118,3.90625,-5.859375,-26.3671875,-23.4375
9,1734116430121.9062,0.48828125,-22.94921875,-27.34375,-24.4140625
10,1734116430125.8125,-29.78515625,-31.73828125,-22.4609375,-6.8359375
11,1734116430129.7188,-28.80859375,12.20703125,-22.4609375,-26.85546875
0,1734116430133.625,-12.6953125,13.671875,-21.97265625,-26.3671875
1,1734116430137.5312,-17.578125,-11.71875,-23.4375,-20.99609375
2,1734116430141.4375,-33.69140625,6.34765625,-28.80859375,-42.96875
3,1734116430145.3438,-46.38671875,11.23046875,-21.97265625,-40.52734375
4,1734116430149.25,-34.66796875,-11.23046875,-18.06640625,-23.4375
5,1734116430153.1562,-20.99609375,-19.53125,-20.5078125,-9.27734375
6,1734116430157.0625,-18.5546875,-10.7421875,-21.97265625,-10.25390625
7,1734116430160.9688,-24.90234375,-4.39453125,-20.5078125,-36.62109375
8,1734116430164.875,-30.2734375,-18.5546875,-20.01953125,-43.9453125
9,1734116430168.7812,-5.37109375,-49.8046875,-30.2734375,-2.44140625
10,1734116430172.6875,-4.8828125,-5.37109375,-29.78515625,2.44140625
11,1734116430176.5938,-19.53125,28.3203125,-21.484375,-16.6015625
0,1734116430180.5,-20.01953125,1.46484375,-16.6015625,-14.16015625
1,1734116430184.4062,-13.671875,1.46484375,-20.99609375,-21.97265625
2,1734116430188.3125,-33.69140625,14.16015625,-25.390625,-62.01171875
3,1734116430192.2188,-26.85546875,9.765625,-31.73828125,-59.08203125
4,1734116430196.125,-20.99609375,-8.30078125,-30.2734375,-21.97265625
5,1734116430200.0312,-12.6953125,-28.80859375,-16.11328125,-50.78125
6,1734116430203.9375,7.8125,-24.4140625,-19.04296875,-50.29296875
7,1734116430207.8438,-22.94921875,-18.5546875,-17.578125,1.953125
8,1734116430211.75,-33.203125,-47.36328125,-5.37109375,-15.13671875
9,1734116430215.6562,-16.11328125,-54.19921875,-13.671875,-25.390625
10,1734116430219.5625,-6.34765625,-10.7421875,-28.3203125,4.8828125
11,1734116430223.4688,-13.671875,-8.7890625,-24.90234375,-12.20703125
0,1734116430227.375,-20.99609375,-32.2265625,-25.87890625,-23.4375
1,1734116430231.2812,-22.94921875,-21.97265625,-25.87890625,-26.3671875
2,1734116430235.1875,-32.2265625,11.23046875,-27.34375,-39.0625
3,1734116430239.0938,-24.90234375,-11.23046875,-21.484375,-33.69140625
4,1734116430243,-10.7421875,-41.9921875,-10.7421875,-20.5078125
5,1734116430246.9062,-33.203125,-23.4375,-16.6015625,-38.57421875
6,1734116430250.8125,-38.57421875,-7.8125,-26.3671875,-29.296875
7,1734116430254.7188,-6.34765625,-33.69140625,-19.04296875,-2.44140625
8,1734116430258.625,-4.8828125,-52.24609375,-17.578125,5.37109375
9,1734116430262.5312,-30.76171875,-5.37109375,-25.87890625,-2.9296875
10,1734116430266.4375,-32.71484375,7.8125,-23.92578125,-18.5546875
11,1734116430270.3438,-22.94921875,-15.625,-19.04296875,-24.4140625
0,1734116430274.25,-19.04296875,-25.390625,-19.04296875,-20.01953125
1,1734116430278.1562,-22.94921875,-13.671875,-20.5078125,-17.08984375
2,1734116430282.0625,-18.06640625,1.953125,-18.06640625,-32.2265625
3,1734116430285.9688,-14.16015625,-32.71484375,-23.4375,-39.55078125
4,1734116430289.875,-26.3671875,-29.78515625,-18.5546875,-21.97265625
5,1734116430293.7812,-22.4609375,0,-15.13671875,-16.6015625
6,1734116430297.6875,-9.27734375,-11.71875,-21.97265625,-19.04296875
7,1734116430301.5938,-3.90625,-44.43359375,-22.94921875,-2.9296875
8,1734116430305.5,-2.9296875,-31.73828125,-26.3671875,-9.27734375
9,1734116430309.4062,-7.8125,28.3203125,-20.5078125,-14.6484375
10,1734116430313.3125,-9.27734375,24.90234375,-10.25390625,2.9296875
11,1734116430317.2188,-3.90625,9.765625,-7.32421875,14.16015625
0,1734116430321.125,17.578125,14.6484375,-8.7890625,-5.859375
1,1734116430325.0312,0.9765625,20.5078125,-13.671875,-34.1796875
2,1734116430328.9375,-14.16015625,5.859375,-21.484375,-9.27734375
3,1734116430332.8438,-4.8828125,-15.13671875,-17.578125,2.9296875
4,1734116430336.75,-13.18359375,3.41796875,-11.71875,-18.06640625
5,1734116430340.6562,-32.2265625,-1.953125,-21.484375,-30.2734375
6,1734116430344.5625,-25.87890625,-33.203125,-28.80859375,-17.08984375
7,1734116430348.4688,-4.8828125,-26.85546875,-27.34375,-9.27734375
8,1734116430352.375,-20.99609375,0.9765625,-20.99609375,-11.71875
9,1734116430356.2812,-19.53125,-1.46484375,-14.16015625,-11.71875
10,1734116430360.1875,2.9296875,-40.0390625,-16.6015625,-8.30078125
11,1734116430364.0938,6.34765625,-48.33984375,-19.53125,-4.8828125
0,1734116430368,-12.20703125,-0.48828125,-16.11328125,-20.01953125
1,1734116430371.9062,-7.32421875,9.27734375,-18.5546875,-8.7890625
2,1734116430375.8125,7.32421875,-7.8125,-22.4609375,7.32421875
3,1734116430379.7188,13.671875,-6.34765625,-19.53125,-2.44140625
4,1734116430383.625,16.6015625,-4.39453125,-19.53125,-6.8359375
5,1734116430387.5312,0.9765625,-20.01953125,-11.71875,-10.7421875
6,1734116430391.4375,2.44140625,-53.22265625,-10.25390625,12.20703125
7,1734116430395.3438,1.46484375,-50.78125,-19.53125,12.20703125
8,1734116430399.25,-14.16015625,-14.6484375,-24.4140625,-23.92578125
9,1734116430403.1562,-27.83203125,-8.7890625,-17.578125,-25.87890625
10,1734116430407.0625,-16.6015625,-43.45703125,-8.30078125,-0.48828125
11,1734116430410.9688,-22.94921875,-33.69140625,-11.71875,-7.32421875
0,1734116430414.875,-30.2734375,17.578125,-21.484375,-30.76171875
1,1734116430418.7812,-20.99609375,-2.44140625,-22.4609375,-24.4140625
2,1734116430422.6875,-12.20703125,-13.18359375,-23.92578125,-20.5078125
3,1734116430426.5938,7.8125,3.41796875,-23.4375,-20.01953125
4,1734116430430.5,-4.39453125,2.44140625,-17.578125,-27.34375
5,1734116430434.4062,-8.7890625,-28.3203125,-17.08984375,-10.7421875
6,1734116430438.3125,-7.32421875,-53.22265625,-21.484375,8.30078125
7,1734116430442.2188,-15.625,-21.484375,-25.87890625,-6.8359375
8,1734116430446.125,-0.48828125,10.7421875,-28.80859375,-17.578125
9,1734116430450.0312,13.671875,-6.34765625,-28.3203125,-2.44140625
10,1734116430453.9375,9.27734375,-13.18359375,-24.4140625,5.37109375
11,1734116430457.8438,-8.30078125,18.06640625,-22.94921875,-5.37109375
0,1734116430461.75,-11.23046875,14.16015625,-22.94921875,-4.8828125
1,1734116430465.6562,5.859375,-4.39453125,-15.625,-9.27734375
2,1734116430469.5625,-1.46484375,0.9765625,-10.7421875,-9.765625
3,1734116430473.4688,-9.765625,12.20703125,-10.7421875,0.9765625
4,1734116430477.375,4.39453125,4.39453125,-11.71875,0.9765625
5,1734116430481.2812,0.9765625,-17.578125,-11.23046875,5.37109375
6,1734116430485.1875,-12.20703125,-20.5078125,-13.18359375,8.30078125
7,1734116430489.0938,-28.3203125,-17.08984375,-17.08984375,-11.71875
8,1734116430493,-31.73828125,-13.18359375,-18.5546875,-16.6015625
9,1734116430496.9062,-16.11328125,-38.0859375,-16.11328125,1.46484375
10,1734116430500.8125,-18.5546875,-47.8515625,-18.06640625,1.953125
11,1734116430504.7188,-37.109375,11.71875,-20.5078125,-26.3671875
0,1734116430508.625,-29.296875,9.765625,-19.04296875,-28.3203125
1,1734116430512.5312,-5.859375,-11.23046875,-17.08984375,-14.6484375
2,1734116430516.4375,6.8359375,5.37109375,-16.6015625,-16.6015625
3,1734116430520.3438,2.44140625,15.13671875,-17.578125,-11.23046875
4,1734116430524.25,-3.90625,-3.90625,-15.13671875,0.9765625
5,1734116430528.1562,13.671875,-20.01953125,-11.23046875,11.23046875
6,1734116430532.0625,23.4375,-11.23046875,-18.06640625,17.578125
7,1734116430535.9688,1.46484375,9.27734375,-14.6484375,9.27734375
8,1734116430539.875,-0.9765625,-7.32421875,-17.08984375,11.71875
9,1734116430543.7812,19.53125,-33.203125,-24.4140625,22.4609375
10,1734116430547.6875,-1.953125,12.20703125,-22.4609375,-0.48828125
11,1734116430551.5938,-13.18359375,19.53125,-22.4609375,-17.08984375
0,1734116430555.5,6.34765625,-24.90234375,-23.4375,-16.11328125
1,1734116430559.4062,1.953125,-28.3203125,-26.3671875,-20.01953125
2,1734116430563.3125,-8.30078125,-6.34765625,-25.87890625,-14.6484375
3,1734116430567.2188,-21.97265625,-5.859375,-31.25,-24.90234375
4,1734116430571.125,-14.16015625,-37.59765625,-23.92578125,-19.53125
5,1734116430575.0312,-1.953125,-40.52734375,-13.18359375,3.90625
6,1734116430578.9375,-8.7890625,-21.97265625,-22.4609375,-4.8828125
7,1734116430582.8438,2.9296875,-12.20703125,-27.34375,-17.578125
8,1734116430586.75,8.30078125,-38.0859375,-20.99609375,-4.8828125
9,1734116430590.6562,-6.34765625,-54.19921875,-20.99609375,-0.9765625
10,1734116430594.5625,-20.5078125,9.27734375,-25.87890625,-32.2265625
11,1734116430598.4688,-12.6953125,6.8359375,-26.85546875,-35.15625
0,1734116430602.375,-10.25390625,-10.25390625,-24.90234375,-24.4140625
1,1734116430606.2812,-19.04296875,1.46484375,-20.5078125,-17.08984375
2,1734116430610.1875,-9.27734375,3.90625,-15.625,-19.04296875
3,1734116430614.0938,9.27734375,-14.6484375,-15.13671875,-14.16015625
4,1734116430618,-4.39453125,-25.390625,-16.11328125,-15.13671875
5,1734116430621.9062,-29.296875,-15.13671875,-13.671875,-30.2734375
6,1734116430625.8125,-23.92578125,-11.23046875,-19.04296875,-26.3671875
7,1734116430629.7188,-16.6015625,-24.90234375,-18.06640625,-22.94921875
8,1734116430633.625,-25.390625,-31.73828125,-18.5546875,-23.92578125
9,1734116430637.5312,-24.90234375,3.90625,-23.4375,-20.99609375
10,1734116430641.4375,-6.8359375,12.20703125,-20.01953125,-16.11328125
11,1734116430645.3438,-2.44140625,-7.32421875,-20.01953125,-10.7421875
0,1734116430649.25,-12.6953125,-10.7421875,-16.11328125,-16.6015625
1,1734116430653.1562,-2.9296875,1.46484375,-17.578125,-12.6953125
2,1734116430657.0625,12.6953125,-1.46484375,-15.13671875,10.25390625
3,1734116430660.9688,14.6484375,-8.30078125,-16.11328125,14.6484375
4,1734116430664.875,0.9765625,-17.08984375,-19.53125,-0.48828125
5,1734116430668.7812,-5.859375,-28.80859375,-24.4140625,-7.8125
6,1734116430672.6875,-14.16015625,-27.83203125,-22.4609375,-19.04296875
7,1734116430676.5938,-7.32421875,-49.8046875,-19.04296875,-6.34765625
8,1734116430680.5,-10.7421875,-66.40625,-14.6484375,-3.90625
9,1734116430684.4062,-26.3671875,-18.06640625,-16.11328125,-28.3203125
10,1734116430688.3125,-17.578125,-8.7890625,-20.5078125,-35.64453125
11,1734116430692.2188,-16.11328125,-27.34375,-21.97265625,-42.96875
0,1734116430696.125,-17.08984375,-14.16015625,-24.90234375,-14.6484375
1,1734116430700.0312,-13.18359375,-1.953125,-16.6015625,-17.08984375
2,1734116430703.9375,-1.46484375,-20.99609375,-17.578125,-19.04296875
3,1734116430707.8438,-5.859375,-17.08984375,-23.92578125,1.953125
4,1734116430711.75,-20.01953125,8.7890625,-14.16015625,-22.4609375
5,1734116430715.6562,-4.8828125,-10.25390625,-11.23046875,-26.85546875
6,1734116430719.5625,21.484375,-40.52734375,-20.5078125,-0.48828125
7,1734116430723.4688,10.7421875,-49.8046875,-22.94921875,-3.41796875
8,1734116430727.375,-7.32421875,-22.94921875,-20.99609375,-22.4609375
9,1734116430731.2812,-18.5546875,5.37109375,-15.625,-27.34375
10,1734116430735.1875,-18.06640625,-18.06640625,-14.16015625,-9.27734375
11,1734116430739.0938,-12.6953125,-32.2265625,-10.25390625,4.39453125
0,1734116430743,-6.34765625,6.8359375,-13.671875,-1.46484375
1,1734116430746.9062,-1.46484375,2.9296875,-16.11328125,-1.46484375
2,1734116430750.8125,-2.9296875,-22.94921875,-15.625,2.9296875
3,1734116430754.7188,-5.859375,-13.671875,-14.6484375,6.8359375
4,1734116430758.625,-12.6953125,-10.25390625,-19.04296875,-4.39453125
5,1734116430762.5312,-15.13671875,-17.08984375,-24.4140625,-24.4140625
6,1734116430766.4375,-8.30078125,-51.7578125,-21.484375,-25.390625
7,1734116430770.3438,-3.41796875,-68.84765625,-22.4609375,7.8125
8,1734116430774.25,-17.08984375,-20.5078125,-23.92578125,-7.8125
9,1734116430778.1562,-25.87890625,-11.71875,-25.390625,-29.78515625
10,1734116430782.0625,-17.578125,-60.05859375,-20.99609375,-9.765625
11,1734116430785.9688,-8.30078125,-47.36328125,-17.08984375,-17.578125
0,1734116430789.875,-13.18359375,2.9296875,-20.5078125,-30.2734375
1,1734116430793.7812,-25.390625,-16.6015625,-29.296875,-12.20703125
2,1734116430797.6875,-31.25,-29.78515625,-30.2734375,-2.9296875
3,1734116430801.5938,-17.08984375,-15.13671875,-24.4140625,-11.23046875
4,1734116430805.5,0.9765625,-11.71875,-22.4609375,-26.3671875
5,1734116430809.4062,0.9765625,-32.2265625,-26.85546875,-13.18359375
6,1734116430813.3125,1.46484375,-53.7109375,-27.83203125,8.30078125
7,1734116430817.2188,-17.578125,-20.5078125,-20.99609375,-10.7421875
8,1734116430821.125,-29.296875,8.30078125,-22.4609375,-17.578125
9,1734116430825.0312,-6.8359375,-13.18359375,-20.99609375,-6.34765625
10,1734116430828.9375,4.39453125,-16.11328125,-22.4609375,-9.765625
11,1734116430832.8438,1.953125,7.32421875,-20.99609375,-0.9765625
0,1734116430836.75,13.671875,9.27734375,-16.11328125,8.30078125
1,1734116430840.6562,12.20703125,-21.97265625,-13.671875,-0.48828125
2,1734116430844.5625,-18.5546875,-18.06640625,-17.08984375,-4.8828125
3,1734116430848.4688,-24.4140625,16.11328125,-20.99609375,-6.34765625
4,1734116430852.375,-17.578125,8.7890625,-16.6015625,12.6953125
5,1734116430856.2812,-1.953125,-8.7890625,-8.7890625,35.64453125
6,1734116430860.1875,6.8359375,-0.9765625,-9.27734375,20.01953125
7,1734116430864.0938,-11.71875,-0.48828125,-10.7421875,-2.44140625
8,1734116430868,-26.3671875,-0.9765625,-9.765625,-33.203125
9,1734116430871.9062,-20.01953125,-29.296875,-14.6484375,-23.92578125
10,1734116430875.8125,-24.90234375,-20.01953125,-14.16015625,-9.765625
11,1734116430879.7188,-29.296875,38.57421875,-11.71875,-22.4609375
0,1734116430883.625,-26.85546875,25.87890625,-14.6484375,-22.4609375
1,1734116430887.5312,-21.484375,2.9296875,-17.08984375,-10.7421875
2,1734116430891.4375,-21.97265625,16.11328125,-17.578125,-9.765625
3,1734116430895.3438,-21.484375,16.6015625,-17.08984375,-15.625
4,1734116430899.25,-14.6484375,-3.90625,-15.13671875,-1.953125
5,1734116430903.1562,-10.25390625,-24.90234375,-15.625,8.30078125
6,1734116430907.0625,-11.23046875,-4.8828125,-22.4609375,2.44140625
7,1734116430910.9688,-25.87890625,19.53125,-27.83203125,-15.13671875
8,1734116430914.875,-23.4375,-6.34765625,-25.87890625,-14.16015625
9,1734116430918.7812,-2.44140625,-22.94921875,-24.4140625,0
10,1734116430922.6875,-13.671875,8.7890625,-24.4140625,2.44140625
11,1734116430926.5938,-15.625,6.34765625,-18.5546875,1.953125
0,1734116430930.5,0.48828125,-10.7421875,-18.5546875,-2.44140625
1,1734116430934.4062,4.39453125,-9.765625,-17.08984375,2.9296875
2,1734116430938.3125,1.953125,3.41796875,-17.08984375,0
3,1734116430942.2188,0.9765625,2.44140625,-20.01953125,-16.6015625
4,1734116430946.125,-4.8828125,-15.13671875,-19.04296875,-17.578125
5,1734116430950.0312,-17.08984375,-18.06640625,-17.08984375,-12.6953125
6,1734116430953.9375,-24.90234375,-10.7421875,-17.578125,-12.20703125
7,1734116430957.8438,-32.2265625,-7.32421875,-18.06640625,-9.765625
8,1734116430961.75,-25.87890625,-43.45703125,-13.671875,-11.23046875
9,1734116430965.6562,-14.16015625,-76.66015625,-18.06640625,-7.32421875
10,1734116430969.5625,-30.76171875,-17.08984375,-20.01953125,-19.53125
11,1734116430973.4688,-41.50390625,8.7890625,-14.6484375,-28.3203125
0,1734116430977.375,-34.66796875,-11.71875,-17.578125,-19.04296875
1,1734116430981.2812,-24.90234375,-5.37109375,-23.92578125,-17.578125
2,1734116430985.1875,-13.671875,4.39453125,-19.53125,-15.625
3,1734116430989.0938,-0.48828125,-9.765625,-16.11328125,-3.90625
4,1734116430993,-6.34765625,-27.34375,-19.04296875,-0.9765625
5,1734116430996.9062,-16.6015625,-19.04296875,-17.578125,-13.18359375
6,1734116431000.8125,-1.46484375,-16.11328125,-13.671875,-14.6484375
7,1734116431004.7188,12.20703125,-25.87890625,-16.6015625,-7.8125
8,1734116431008.625,5.37109375,-48.33984375,-20.99609375,-0.9765625
9,1734116431012.5312,-15.625,-6.8359375,-17.578125,-11.71875
10,1734116431016.4375,-15.625,23.92578125,-11.23046875,-9.27734375
11,1734116431020.3438,7.32421875,-6.34765625,-7.8125,2.9296875
0,1734116431024.25,15.625,-10.7421875,-5.37109375,-8.30078125
1,1734116431028.1562,2.9296875,7.32421875,-10.7421875,-16.6015625
2,1734116431032.0625,-6.34765625,-4.39453125,-13.18359375,-7.32421875
3,1734116431035.9688,-10.25390625,-21.484375,-9.765625,-13.18359375
4,1734116431039.875,-14.16015625,-16.6015625,-12.6953125,-29.78515625
5,1734116431043.7812,-17.08984375,-22.4609375,-12.20703125,-32.71484375
6,1734116431047.6875,-9.765625,-20.99609375,-17.578125,-36.62109375
7,1734116431051.5938,-0.9765625,-52.24609375,-20.99609375,-20.5078125
8,1734116431055.5,-11.71875,-66.40625,-15.13671875,-2.9296875
9,1734116431059.4062,-21.484375,0,-8.7890625,-21.97265625
10,1734116431063.3125,-18.06640625,-0.9765625,-7.8125,-26.3671875
11,1734116431067.2188,-6.34765625,-26.3671875,-12.20703125,-7.8125
0,1734116431071.125,1.46484375,-6.34765625,-9.765625,-8.7890625
1,1734116431075.0312,1.953125,9.27734375,-13.671875,-12.20703125
2,1734116431078.9375,10.7421875,-11.23046875,-17.578125,6.34765625
3,1734116431082.8438,1.953125,-27.34375,-16.11328125,5.37109375
4,1734116431086.75,-11.71875,-16.6015625,-15.625,-22.94921875
5,1734116431090.6562,8.7890625,-20.01953125,-15.13671875,-22.94921875
6,1734116431094.5625,18.06640625,-35.15625,-15.13671875,-4.8828125
7,1734116431098.4688,17.08984375,-43.45703125,-15.625,-5.37109375
8,1734116431102.375,0,-8.7890625,-18.5546875,-30.2734375
9,1734116431106.2812,-14.16015625,7.32421875,-17.578125,-35.15625
10,1734116431110.1875,-11.71875,-16.6015625,-20.99609375,-25.390625
11,1734116431114.0938,-7.8125,-22.94921875,-25.87890625,-33.203125
0,1734116431118,-16.6015625,-12.20703125,-21.97265625,-32.71484375
1,1734116431121.9062,-10.25390625,-19.04296875,-17.08984375,-21.484375
2,1734116431125.8125,5.859375,-41.9921875,-14.6484375,-12.20703125
3,1734116431129.7188,-2.9296875,-19.04296875,-9.765625,-18.06640625
4,1734116431133.625,-16.6015625,1.46484375,-10.7421875,-20.5078125
5,1734116431137.5312,-21.97265625,-17.08984375,-16.6015625,-19.04296875
6,1734116431141.4375,-14.6484375,-46.38671875,-17.578125,-13.671875
7,1734116431145.3438,-22.94921875,-51.7578125,-17.08984375,-6.34765625
8,1734116431149.25,-42.48046875,2.9296875,-19.53125,-26.3671875
9,1734116431153.1562,-26.3671875,10.7421875,-20.01953125,-35.64453125
10,1734116431157.0625,-9.765625,-28.80859375,-14.16015625,-20.5078125
11,1734116431160.9688,-9.27734375,-13.18359375,-9.765625,-21.484375
0,1734116431164.875,-6.8359375,11.23046875,-15.625,-25.87890625
1,1734116431168.7812,-11.71875,-9.765625,-22.94921875,-13.18359375
2,1734116431172.6875,-16.11328125,-18.06640625,-24.90234375,-5.37109375
3,1734116431176.5938,-0.9765625,-12.6953125,-26.3671875,0.48828125
4,1734116431180.5,0.9765625,-13.18359375,-28.80859375,-7.32421875
5,1734116431184.4062,-6.34765625,-21.484375,-26.85546875,-13.18359375
6,1734116431188.3125,15.625,-61.03515625,-24.90234375,8.7890625
7,1734116431192.2188,0,-31.73828125,-26.3671875,-4.39453125
8,1734116431196.125,-21.97265625,15.625,-22.94921875,-29.296875
9,1734116431200.0312,-10.7421875,-9.765625,-17.578125,-21.484375
10,1734116431203.9375,-24.90234375,-14.6484375,-17.08984375,-30.76171875
11,1734116431207.8438,-29.296875,3.90625,-16.6015625,-27.34375
0,1734116431211.75,-26.3671875,2.44140625,-16.11328125,-22.94921875
1,1734116431215.6562,-36.62109375,-17.578125,-19.04296875,-32.71484375
2,1734116431219.5625,-30.2734375,-22.94921875,-19.04296875,-24.4140625
3,1734116431223.4688,-14.6484375,-8.30078125,-10.25390625,-30.2734375
4,1734116431227.375,-20.5078125,-14.6484375,-8.30078125,-41.015625
5,1734116431231.2812,-22.94921875,-38.57421875,-17.08984375,-21.484375
6,1734116431235.1875,-24.4140625,-32.71484375,-21.484375,-4.8828125
7,1734116431239.0938,-25.87890625,-30.2734375,-18.06640625,-15.625
8,1734116431243,-19.04296875,-20.01953125,-12.6953125,-24.4140625
9,1734116431246.9062,-6.8359375,-45.41015625,-12.6953125,-15.625
10,1734116431250.8125,-6.8359375,-69.3359375,-14.16015625,-10.7421875
11,1734116431254.7188,-20.99609375,-4.8828125,-16.6015625,-18.5546875
0,1734116431258.625,-20.01953125,8.7890625,-22.4609375,-35.15625
1,1734116431262.5312,-22.4609375,-6.34765625,-16.11328125,-48.828125
2,1734116431266.4375,-14.6484375,-3.90625,-13.671875,-15.13671875
3,1734116431270.3438,-1.46484375,5.37109375,-21.484375,2.44140625
4,1734116431274.25,1.953125,-9.765625,-16.6015625,10.25390625
5,1734116431278.1562,6.34765625,-40.0390625,-8.7890625,-14.16015625
6,1734116431282.0625,-7.8125,-21.97265625,-10.25390625,-28.3203125
7,1734116431285.9688,-15.13671875,3.90625,-14.6484375,6.8359375
8,1734116431289.875,-5.859375,-25.390625,-9.765625,3.90625
9,1734116431293.7812,-7.8125,-63.96484375,-18.5546875,1.46484375
10,1734116431297.6875,-22.94921875,-16.6015625,-24.4140625,-20.5078125
11,1734116431301.5938,-25.390625,5.37109375,-21.484375,-29.78515625
0,1734116431305.5,-16.6015625,-24.90234375,-16.6015625,-33.69140625
1,1734116431309.4062,-23.92578125,-19.04296875,-17.578125,-48.33984375
2,1734116431313.3125,-34.1796875,-6.34765625,-21.484375,-55.6640625
3,1734116431317.2188,-25.87890625,-19.04296875,-16.6015625,-41.9921875
4,1734116431321.125,-15.625,-27.83203125,-22.4609375,-15.13671875
5,1734116431325.0312,-13.671875,-30.2734375,-24.4140625,-10.7421875
6,1734116431328.9375,-18.5546875,-31.25,-19.53125,-19.53125
7,1734116431332.8438,-26.85546875,-32.2265625,-20.01953125,-28.80859375
8,1734116431336.75,-18.06640625,-57.12890625,-24.90234375,-10.7421875
9,1734116431340.6562,-18.5546875,-63.96484375,-17.578125,0.48828125
10,1734116431344.5625,-22.4609375,-1.46484375,-15.13671875,-17.08984375
11,1734116431348.4688,-11.23046875,0.48828125,-14.6484375,-15.13671875
0,1734116431352.375,-10.7421875,-15.625,-16.6015625,-20.01953125
1,1734116431356.2812,-5.37109375,5.37109375,-15.625,-17.578125
2,1734116431360.1875,-10.7421875,17.08984375,-13.671875,-6.8359375
3,1734116431364.0938,-14.6484375,3.90625,-23.4375,1.46484375
4,1734116431368,-6.8359375,-11.23046875,-24.90234375,1.953125
5,1734116431371.9062,-10.25390625,-14.16015625,-21.484375,-8.7890625
6,1734116431375.8125,-17.08984375,-0.48828125,-22.4609375,-22.94921875
7,1734116431379.7188,-16.6015625,-11.23046875,-23.92578125,-36.62109375
8,1734116431383.625,-13.18359375,-31.25,-22.4609375,-29.296875
9,1734116431387.5312,-15.625,2.9296875,-26.85546875,-31.25
10,1734116431391.4375,-20.99609375,16.11328125,-28.3203125,-35.15625
11,1734116431395.3438,-18.06640625,-7.32421875,-29.296875,-26.3671875
0,1734116431399.25,-16.6015625,-6.34765625,-32.2265625,-22.94921875
1,1734116431403.1562,-21.484375,0,-27.34375,-21.97265625
2,1734116431407.0625,-30.76171875,0.48828125,-21.97265625,-23.4375
3,1734116431410.9688,-32.2265625,-19.04296875,-23.92578125,-13.671875
4,1734116431414.875,-31.25,-24.4140625,-26.85546875,-9.27734375
5,1734116431418.7812,-27.34375,-7.8125,-22.94921875,-3.90625
6,1734116431422.6875,-13.18359375,-8.30078125,-26.85546875,-6.34765625
7,1734116431426.5938,14.6484375,-35.64453125,-23.4375,10.25390625
8,1734116431430.5,26.85546875,-46.875,-23.4375,18.5546875
9,1734116431434.4062,-2.44140625,20.01953125,-25.87890625,-19.53125
10,1734116431438.3125,-21.97265625,28.80859375,-22.94921875,-24.90234375
11,1734116431442.2188,-20.01953125,9.27734375,-30.2734375,-18.5546875
0,1734116431446.125,-20.01953125,16.6015625,-36.1328125,-26.85546875
1,1734116431450.0312,-22.4609375,26.3671875,-33.203125,-30.76171875
2,1734116431453.9375,-16.6015625,19.53125,-28.80859375,-19.04296875
3,1734116431457.8438,-1.953125,-2.44140625,-26.85546875,-7.8125
4,1734116431461.75,-0.48828125,0,-20.99609375,-15.625
5,1734116431465.6562,0.48828125,-1.953125,-20.01953125,-26.85546875
6,1734116431469.5625,-15.13671875,-12.20703125,-22.4609375,-25.87890625
7,1734116431473.4688,-22.94921875,-46.38671875,-18.06640625,-7.8125
8,1734116431477.375,-33.69140625,-20.99609375,-23.4375,-28.80859375
9,1734116431481.2812,-38.57421875,26.3671875,-22.94921875,-40.0390625
10,1734116431485.1875,-2.9296875,16.6015625,-9.27734375,-19.53125
11,1734116431489.0938,-17.08984375,13.671875,-16.6015625,-23.4375
0,1734116431493,-36.1328125,10.7421875,-32.2265625,-30.76171875
1,1734116431496.9062,-9.27734375,11.23046875,-28.80859375,-18.5546875
2,1734116431500.8125,-0.48828125,0.9765625,-21.484375,-0.9765625
3,1734116431504.7188,-10.25390625,-1.953125,-18.06640625,3.41796875
4,1734116431508.625,-11.23046875,-1.953125,-21.484375,5.37109375
5,1734116431512.5312,-4.8828125,-17.08984375,-22.4609375,13.671875
6,1734116431516.4375,8.7890625,-49.8046875,-14.6484375,30.76171875
7,1734116431520.3438,18.5546875,-45.41015625,-15.625,28.80859375
8,1734116431524.25,12.20703125,-0.9765625,-19.04296875,2.44140625
9,1734116431528.1562,0,10.7421875,-17.08984375,-2.44140625
10,1734116431532.0625,-0.48828125,-28.80859375,-20.5078125,12.20703125
11,1734116431535.9688,-8.7890625,-27.34375,-28.3203125,0.48828125
0,1734116431539.875,-26.3671875,23.4375,-31.25,-30.2734375
1,1734116431543.7812,-19.53125,6.8359375,-23.4375,-26.3671875
2,1734116431547.6875,-22.94921875,-4.39453125,-14.6484375,-17.578125
3,1734116431551.5938,-33.203125,-0.9765625,-21.484375,-20.01953125
4,1734116431555.5,-23.4375,0,-27.83203125,-10.7421875
5,1734116431559.4062,-3.90625,-22.4609375,-26.85546875,-0.48828125
6,1734116431563.3125,-5.859375,-45.41015625,-28.80859375,1.953125
7,1734116431567.2188,-21.484375,-0.9765625,-27.83203125,-5.859375
8,1734116431571.125,-15.625,15.13671875,-25.390625,-15.13671875
9,1734116431575.0312,-8.7890625,-22.94921875,-29.78515625,-8.7890625
10,1734116431578.9375,-15.13671875,-26.3671875,-31.25,-9.27734375
11,1734116431582.8438,-19.04296875,0,-29.78515625,-14.6484375
0,1734116431586.75,-13.18359375,-7.32421875,-25.390625,-6.34765625
1,1734116431590.6562,-9.765625,-20.01953125,-20.01953125,-5.37109375
2,1734116431594.5625,-14.16015625,-9.27734375,-18.06640625,-2.44140625
3,1734116431598.4688,-10.7421875,-4.39453125,-12.20703125,0
4,1734116431602.375,-1.953125,-18.06640625,-12.6953125,2.44140625
5,1734116431606.2812,0.48828125,-34.66796875,-17.578125,4.39453125
6,1734116431610.1875,0,-29.296875,-12.20703125,-13.671875
7,1734116431614.0938,2.44140625,-20.99609375,-16.11328125,-27.83203125
8,1734116431618,1.953125,-11.71875,-19.04296875,-22.4609375
9,1734116431621.9062,-5.859375,-45.41015625,-14.16015625,-16.6015625
10,1734116431625.8125,-10.7421875,-56.640625,-25.87890625,-21.484375
11,1734116431629.7188,-27.83203125,-7.32421875,-28.3203125,-36.1328125
0,1734116431633.625,-38.57421875,-6.8359375,-25.390625,-37.109375
1,1734116431637.5312,-26.85546875,-18.06640625,-23.4375,-26.85546875
2,1734116431641.4375,-27.34375,-2.9296875,-20.5078125,-21.97265625
3,1734116431645.3438,-28.80859375,8.30078125,-24.4140625,-26.85546875
4,1734116431649.25,-7.32421875,-14.16015625,-19.04296875,-16.11328125
5,1734116431653.1562,-0.9765625,-39.0625,-18.5546875,-6.8359375
6,1734116431657.0625,-2.9296875,-24.4140625,-22.4609375,-0.9765625
7,1734116431660.9688,-8.7890625,2.9296875,-20.99609375,1.46484375
8,1734116431664.875,-10.25390625,-14.6484375,-20.99609375,4.8828125
9,1734116431668.7812,4.39453125,-40.0390625,-15.13671875,8.30078125
10,1734116431672.6875,-4.8828125,-3.41796875,-16.6015625,0
11,1734116431676.5938,-10.7421875,4.8828125,-18.5546875,-0.48828125
0,1734116431680.5,-1.46484375,-17.578125,-12.20703125,4.39453125
1,1734116431684.4062,6.34765625,-21.97265625,-8.7890625,2.9296875
2,1734116431688.3125,-2.44140625,-10.25390625,-6.34765625,0.48828125
3,1734116431692.2188,-12.20703125,-3.41796875,-6.34765625,-7.32421875
4,1734116431696.125,-2.44140625,-31.73828125,-13.18359375,1.46484375
5,1734116431700.0312,3.41796875,-48.33984375,-16.11328125,1.953125
6,1734116431703.9375,-6.34765625,-28.80859375,-20.5078125,-22.4609375
7,1734116431707.8438,-14.6484375,-15.13671875,-24.90234375,-26.85546875
8,1734116431711.75,-17.578125,-45.41015625,-19.04296875,-20.99609375
9,1734116431715.6562,-32.71484375,-55.17578125,-24.4140625,-21.484375
10,1734116431719.5625,-51.26953125,11.71875,-30.76171875,-47.36328125
11,1734116431723.4688,-37.109375,22.4609375,-26.3671875,-58.10546875
0,1734116431727.375,-28.80859375,2.44140625,-21.97265625,-52.734375
1,1734116431731.2812,-41.015625,7.8125,-21.97265625,-46.875
2,1734116431735.1875,-32.2265625,13.671875,-24.90234375,-36.1328125
3,1734116431739.0938,-18.06640625,-4.39453125,-17.08984375,-34.1796875
4,1734116431743,-15.13671875,-22.94921875,-19.53125,-25.87890625
5,1734116431746.9062,-10.7421875,-17.08984375,-23.92578125,-15.13671875
6,1734116431750.8125,-15.13671875,-7.8125,-23.92578125,-14.6484375
7,1734116431754.7188,-6.34765625,-19.53125,-24.4140625,-22.4609375
8,1734116431758.625,16.6015625,-55.6640625,-20.01953125,-6.34765625
9,1734116431762.5312,5.859375,-10.7421875,-27.34375,-17.578125
10,1734116431766.4375,-12.20703125,29.78515625,-37.59765625,-39.55078125
11,1734116431770.3438,-8.7890625,-4.39453125,-38.57421875,-20.99609375
0,1734116431774.25,-16.6015625,-8.7890625,-31.25,-14.16015625
1,1734116431778.1562,-20.99609375,4.39453125,-23.4375,-26.85546875
2,1734116431782.0625,-13.671875,-3.41796875,-21.97265625,-36.1328125
3,1734116431785.9688,-8.7890625,-18.06640625,-18.06640625,-28.3203125
4,1734116431789.875,-30.76171875,-15.625,-22.4609375,-43.9453125
5,1734116431793.7812,-35.15625,-21.97265625,-29.296875,-45.41015625
6,1734116431797.6875,-21.484375,-19.04296875,-28.80859375,-38.57421875
7,1734116431801.5938,-33.69140625,-47.36328125,-29.296875,-36.62109375
8,1734116431805.5,-32.71484375,-76.171875,-28.80859375,-28.80859375
9,1734116431809.4062,-34.66796875,-9.765625,-32.71484375,-41.9921875
10,1734116431813.3125,-39.55078125,10.7421875,-29.78515625,-39.55078125
11,1734116431817.2188,-30.2734375,-15.625,-22.4609375,-18.5546875
0,1734116431821.125,-24.4140625,0.48828125,-19.04296875,-21.97265625
1,1734116431825.0312,-20.01953125,13.18359375,-17.08984375,-20.5078125
2,1734116431828.9375,-7.8125,-4.39453125,-15.625,3.41796875
3,1734116431832.8438,1.953125,-9.27734375,-16.6015625,-0.48828125
4,1734116431836.75,3.90625,2.44140625,-19.04296875,-16.11328125
5,1734116431840.6562,-2.9296875,-4.8828125,-18.06640625,-9.27734375
6,1734116431844.5625,-16.11328125,-28.80859375,-21.484375,-12.20703125
7,1734116431848.4688,-13.671875,-41.015625,-34.66796875,-16.6015625
8,1734116431852.375,-16.11328125,-13.671875,-42.96875,-8.30078125
9,1734116431856.2812,-11.23046875,5.859375,-38.57421875,-10.25390625
10,1734116431860.1875,1.46484375,-15.13671875,-28.80859375,-7.8125
11,1734116431864.0938,-11.23046875,-26.3671875,-20.01953125,-0.48828125
0,1734116431868,-20.01953125,2.44140625,-18.5546875,-9.765625
1,1734116431871.9062,-11.71875,7.32421875,-23.92578125,-30.76171875
2,1734116431875.8125,-16.6015625,3.41796875,-26.3671875,-32.71484375
3,1734116431879.7188,-26.85546875,0.9765625,-17.08984375,-20.99609375
4,1734116431883.625,-15.13671875,-1.46484375,-14.16015625,-16.11328125
5,1734116431887.5312,2.44140625,-10.7421875,-17.578125,-15.13671875
6,1734116431891.4375,-0.9765625,-42.48046875,-19.04296875,-17.578125
7,1734116431895.3438,-20.5078125,-50.78125,-17.578125,-20.01953125
8,1734116431899.25,-34.1796875,-9.765625,-10.25390625,-23.4375
9,1734116431903.1562,-36.1328125,-0.48828125,-3.41796875,-9.765625
10,1734116431907.0625,-21.484375,-37.109375,-2.9296875,11.71875
11,1734116431910.9688,-20.5078125,-42.96875,-7.32421875,11.71875
0,1734116431914.875,-22.4609375,-9.27734375,-13.18359375,-6.8359375
1,1734116431918.7812,-4.8828125,-6.8359375,-17.578125,-5.859375
2,1734116431922.6875,3.90625,-14.6484375,-21.97265625,2.9296875
3,1734116431926.5938,-6.34765625,1.953125,-26.85546875,-7.8125
4,1734116431930.5,0,10.7421875,-20.99609375,-17.08984375
5,1734116431934.4062,11.71875,-17.578125,-19.53125,-1.953125
6,1734116431938.3125,3.41796875,-40.52734375,-22.94921875,12.20703125
7,1734116431942.2188,-3.90625,0.9765625,-20.99609375,-0.9765625
8,1734116431946.125,-3.41796875,23.4375,-23.4375,-16.6015625
9,1734116431950.0312,6.34765625,-4.39453125,-17.578125,-13.671875
10,1734116431953.9375,-1.953125,-6.34765625,-18.06640625,-18.5546875
11,1734116431957.8438,-16.6015625,11.71875,-22.4609375,-21.97265625
0,1734116431961.75,-15.13671875,4.39453125,-20.01953125,-18.5546875
1,1734116431965.6562,-11.23046875,-22.94921875,-23.92578125,-17.578125
2,1734116431969.5625,-9.27734375,-29.296875,-25.87890625,-31.73828125
3,1734116431973.4688,-11.23046875,-1.953125,-20.99609375,-36.1328125
4,1734116431977.375,-20.99609375,1.953125,-23.4375,-23.4375
5,1734116431981.2812,-13.671875,-46.875,-27.83203125,-12.6953125
6,1734116431985.1875,-10.25390625,-57.6171875,-21.97265625,-4.39453125
7,1734116431989.0938,-13.671875,-15.625,-14.6484375,-8.7890625
8,1734116431993,-13.671875,-2.9296875,-12.20703125,-9.765625
9,1734116431996.9062,-23.4375,-36.1328125,-6.8359375,0.48828125
10,1734116432000.8125,-37.109375,-35.15625,-1.46484375,-13.18359375
11,1734116432004.7188,-44.43359375,10.7421875,-8.7890625,-28.80859375
0,1734116432008.625,-32.71484375,0.48828125,-15.13671875,-13.18359375
1,1734116432012.5312,-32.2265625,-5.37109375,-21.484375,-7.32421875
2,1734116432016.4375,-26.3671875,2.9296875,-22.94921875,-7.8125
3,1734116432020.3438,-21.484375,-3.90625,-21.484375,-3.90625
4,1734116432024.25,-17.578125,-25.390625,-16.6015625,4.39453125
5,1734116432028.1562,-20.5078125,-46.875,-8.30078125,0.9765625
6,1734116432032.0625,-28.80859375,-31.73828125,-10.25390625,-13.671875
7,1734116432035.9688,-18.5546875,-1.46484375,-13.18359375,-22.4609375
8,1734116432039.875,-13.671875,-19.53125,-20.5078125,-15.13671875
9,1734116432043.7812,-4.39453125,-44.43359375,-22.4609375,0.48828125
10,1734116432047.6875,-4.39453125,-10.7421875,-19.53125,-6.34765625
11,1734116432051.5938,-9.765625,-0.9765625,-17.08984375,-14.6484375
0,1734116432055.5,-16.11328125,-26.85546875,-16.6015625,-11.23046875
1,1734116432059.4062,-21.484375,-20.99609375,-20.5078125,-16.11328125
2,1734116432063.3125,-6.34765625,0.48828125,-19.53125,-11.71875
3,1734116432067.2188,-1.953125,-8.7890625,-16.6015625,-5.859375
4,1734116432071.125,-14.6484375,-25.87890625,-11.71875,-12.20703125
5,1734116432075.0312,-15.625,-35.64453125,-11.23046875,-12.20703125
6,1734116432078.9375,-5.859375,-32.71484375,-8.7890625,-10.7421875
7,1734116432082.8438,-10.25390625,-24.90234375,-10.25390625,-12.20703125
8,1734116432086.75,-11.23046875,-51.26953125,-10.7421875,5.859375
9,1734116432090.6562,-7.8125,-81.54296875,-13.18359375,6.34765625
10,1734116432094.5625,-31.73828125,-18.06640625,-25.390625,-26.3671875
11,1734116432098.4688,-22.94921875,13.671875,-26.85546875,-29.296875
0,1734116432102.375,-5.37109375,-7.32421875,-23.92578125,-14.6484375
1,1734116432106.2812,-8.30078125,4.8828125,-29.78515625,-6.8359375
2,1734116432110.1875,-11.71875,6.8359375,-23.92578125,-7.8125
3,1734116432114.0938,-7.32421875,-14.16015625,-16.11328125,2.44140625
4,1734116432118,-7.8125,-27.83203125,-22.4609375,-0.9765625
5,1734116432121.9062,0.9765625,-25.87890625,-24.4140625,-7.8125
6,1734116432125.8125,0.9765625,-18.5546875,-21.97265625,-14.6484375
7,1734116432129.7188,-8.7890625,-26.3671875,-25.390625,-30.2734375
8,1734116432133.625,-10.7421875,-35.15625,-31.25,-28.3203125
9,1734116432137.5312,-18.5546875,-7.8125,-31.73828125,-22.94921875
10,1734116432141.4375,-17.08984375,10.7421875,-28.3203125,-25.390625
11,1734116432145.3438,-12.6953125,-12.6953125,-23.4375,-16.6015625
0,1734116432149.25,-2.44140625,-22.94921875,-20.01953125,-9.765625
1,1734116432153.1562,-10.7421875,2.9296875,-18.06640625,-30.76171875
2,1734116432157.0625,-14.6484375,2.9296875,-26.85546875,-26.3671875
3,1734116432160.9688,-8.7890625,-17.578125,-29.78515625,1.46484375
4,1734116432164.875,-4.39453125,-19.53125,-20.99609375,5.37109375
5,1734116432168.7812,-4.39453125,-20.01953125,-20.01953125,-4.8828125
6,1734116432172.6875,-4.8828125,-19.04296875,-20.01953125,-3.41796875
7,1734116432176.5938,17.578125,-49.31640625,-17.578125,16.11328125
8,1734116432180.5,12.6953125,-63.4765625,-18.06640625,15.625
9,1734116432184.4062,-16.6015625,5.37109375,-17.08984375,-8.30078125
10,1734116432188.3125,-3.90625,17.578125,-14.16015625,-13.18359375
11,1734116432192.2188,15.625,-6.8359375,-14.16015625,-12.6953125
0,1734116432196.125,1.46484375,7.32421875,-17.578125,-13.18359375
1,1734116432200.0312,-9.765625,21.97265625,-15.13671875,-16.6015625
2,1734116432203.9375,-9.765625,2.9296875,-15.13671875,-20.5078125
3,1734116432207.8438,-12.20703125,-8.7890625,-22.4609375,-11.71875
4,1734116432211.75,-12.20703125,6.8359375,-21.97265625,-9.765625
5,1734116432215.6562,-7.32421875,5.37109375,-20.99609375,-18.5546875
6,1734116432219.5625,1.46484375,-19.04296875,-22.4609375,-19.53125
7,1734116432223.4688,-1.953125,-39.0625,-13.671875,-14.6484375
8,1734116432227.375,-28.80859375,-9.765625,-19.04296875,-28.80859375
9,1734116432231.2812,-41.015625,6.34765625,-21.484375,-51.26953125
10,1734116432235.1875,-27.83203125,-19.04296875,-17.08984375,-39.0625
11,1734116432239.0938,-31.25,-20.99609375,-20.01953125,-22.4609375
0,1734116432243,-38.0859375,-4.8828125,-18.06640625,-27.34375
1,1734116432246.9062,-26.85546875,-7.8125,-20.99609375,-29.296875
2,1734116432250.8125,-16.11328125,-40.0390625,-20.5078125,-20.99609375
3,1734116432254.7188,-6.34765625,-26.3671875,-17.578125,-9.765625
4,1734116432258.625,-10.25390625,1.953125,-17.08984375,-14.16015625
5,1734116432262.5312,-26.3671875,-0.48828125,-17.578125,-23.4375
6,1734116432266.4375,-13.671875,-39.55078125,-14.16015625,-2.9296875
7,1734116432270.3438,8.30078125,-58.59375,-8.7890625,14.16015625
8,1734116432274.25,-10.7421875,-7.32421875,-9.27734375,-7.8125
9,1734116432278.1562,-18.06640625,2.9296875,-12.6953125,-20.01953125
10,1734116432282.0625,-18.5546875,-32.2265625,-13.671875,-8.30078125
11,1734116432285.9688,-26.3671875,-23.92578125,-16.6015625,-14.16015625
0,1734116432289.875,-19.53125,12.20703125,-17.08984375,-36.1328125
1,1734116432293.7812,-8.7890625,-5.859375,-14.16015625,-30.2734375
2,1734116432297.6875,-13.671875,-18.5546875,-15.13671875,-30.76171875
3,1734116432301.5938,-24.4140625,-6.34765625,-15.625,-35.15625
4,1734116432305.5,-20.01953125,-11.23046875,-12.20703125,-35.64453125
5,1734116432309.4062,-14.16015625,-26.3671875,-9.765625,-34.66796875
6,1734116432313.3125,-12.6953125,-66.89453125,-12.6953125,-14.6484375
7,1734116432317.2188,-26.3671875,-36.1328125,-14.6484375,-22.4609375
8,1734116432321.125,-30.76171875,17.578125,-14.16015625,-34.1796875
9,1734116432325.0312,-24.90234375,-7.32421875,-15.13671875,-22.94921875
10,1734116432328.9375,-16.6015625,-7.8125,-12.20703125,-23.4375
11,1734116432332.8438,-13.671875,9.765625,-16.6015625,-10.7421875
0,1734116432336.75,-9.27734375,-1.46484375,-20.5078125,-4.39453125
1,1734116432340.6562,-4.39453125,-26.85546875,-15.625,-13.18359375
2,1734116432344.5625,-10.25390625,-15.625,-14.16015625,-25.87890625
3,1734116432348.4688,-7.8125,1.46484375,-15.13671875,-25.390625
4,1734116432352.375,-7.32421875,-10.7421875,-19.04296875,-23.4375
5,1734116432356.2812,5.37109375,-30.76171875,-23.92578125,-7.32421875
6,1734116432360.1875,8.30078125,-20.01953125,-24.4140625,-1.953125
7,1734116432364.0938,-11.71875,-8.30078125,-19.04296875,-19.04296875
8,1734116432368,-23.92578125,-6.8359375,-22.4609375,-26.3671875
9,1734116432371.9062,-11.71875,-36.62109375,-23.92578125,-15.625
10,1734116432375.8125,2.44140625,-59.08203125,-20.01953125,2.9296875
11,1734116432379.7188,-8.7890625,-6.34765625,-21.484375,-16.6015625
0,1734116432383.625,-27.34375,14.6484375,-18.06640625,-30.2734375
1,1734116432387.5312,-26.3671875,-2.9296875,-21.484375,-26.3671875
2,1734116432391.4375,-20.5078125,-6.8359375,-23.4375,-33.69140625
3,1734116432395.3438,-22.94921875,-0.48828125,-22.94921875,-40.52734375
4,1734116432399.25,-30.2734375,-13.18359375,-22.94921875,-30.76171875
5,1734116432403.1562,-28.80859375,-29.296875,-22.94921875,-5.859375
6,1734116432407.0625,-20.99609375,-19.53125,-20.5078125,-15.625
7,1734116432410.9688,-20.5078125,0,-22.94921875,-23.4375
8,1734116432414.875,-5.37109375,-17.578125,-22.94921875,-6.34765625
9,1734116432418.7812,0,-43.45703125,-14.16015625,4.39453125
10,1734116432422.6875,-15.625,-0.9765625,-9.765625,-2.9296875
11,1734116432426.5938,-18.5546875,20.99609375,-7.8125,-14.6484375
0,1734116432430.5,-3.90625,-19.53125,-18.06640625,-4.39453125
1,1734116432434.4062,7.8125,-31.25,-23.92578125,11.23046875
2,1734116432438.3125,-1.46484375,4.39453125,-18.06640625,-4.39453125
3,1734116432442.2188,-7.32421875,6.34765625,-15.13671875,-6.34765625
4,1734116432446.125,-5.859375,-10.7421875,-18.5546875,-4.8828125
5,1734116432450.0312,-4.8828125,-22.4609375,-24.4140625,-8.30078125
6,1734116432453.9375,-13.18359375,-22.94921875,-21.97265625,-19.53125
7,1734116432457.8438,-17.08984375,-16.11328125,-20.01953125,-37.59765625
8,1734116432461.75,-19.53125,-54.6875,-23.4375,-32.71484375
9,1734116432465.6562,-35.64453125,-68.84765625,-24.4140625,-22.94921875
10,1734116432469.5625,-42.96875,-3.90625,-23.92578125,-34.66796875
11,1734116432473.4688,-32.2265625,0.48828125,-22.4609375,-30.76171875
0,1734116432477.375,-20.99609375,-22.94921875,-21.97265625,-17.578125
1,1734116432481.2812,-14.6484375,-6.8359375,-22.94921875,-14.16015625
2,1734116432485.1875,-17.578125,6.8359375,-22.4609375,-20.5078125
3,1734116432489.0938,-15.13671875,-5.37109375,-20.01953125,-23.4375
4,1734116432493,-6.8359375,-17.08984375,-19.53125,-22.4609375
5,1734116432496.9062,-7.8125,-17.08984375,-22.94921875,-23.4375
6,1734116432500.8125,0.48828125,-11.71875,-23.92578125,-22.4609375
7,1734116432504.7188,11.71875,-11.23046875,-27.83203125,-8.7890625
8,1734116432508.625,11.23046875,-28.80859375,-28.80859375,2.9296875
9,1734116432512.5312,-5.859375,-7.32421875,-23.4375,-5.37109375
10,1734116432516.4375,-6.34765625,17.578125,-21.97265625,-1.953125
11,1734116432520.3438,7.8125,-0.48828125,-19.04296875,10.7421875
0,1734116432524.25,5.37109375,-8.7890625,-16.6015625,12.20703125
1,1734116432528.1562,-6.8359375,-0.48828125,-17.08984375,3.41796875
2,1734116432532.0625,-8.30078125,-9.27734375,-15.625,-2.44140625
3,1734116432535.9688,0,-31.25,-13.18359375,-6.8359375
4,1734116432539.875,-9.27734375,-19.04296875,-12.6953125,-14.16015625
5,1734116432543.7812,-7.32421875,-3.41796875,-16.6015625,-12.20703125
6,1734116432547.6875,-2.44140625,-9.765625,-18.5546875,-24.4140625
7,1734116432551.5938,0.48828125,-38.0859375,-16.11328125,-17.578125
8,1734116432555.5,-7.32421875,-50.78125,-17.578125,0
9,1734116432559.4062,-25.390625,11.71875,-20.5078125,-11.23046875
10,1734116432563.3125,-16.6015625,22.94921875,-21.97265625,-16.6015625
11,1734116432567.2188,-16.6015625,1.953125,-22.94921875,-16.11328125
0,1734116432571.125,-18.5546875,8.30078125,-19.04296875,-14.16015625
1,1734116432575.0312,-19.53125,15.13671875,-18.06640625,-17.08984375
2,1734116432578.9375,-13.671875,1.46484375,-21.484375,-15.625
3,1734116432582.8438,-7.32421875,-10.25390625,-21.97265625,-13.671875
4,1734116432586.75,-10.25390625,-3.41796875,-14.6484375,-7.32421875
5,1734116432590.6562,-14.16015625,-6.8359375,-11.23046875,-2.44140625
6,1734116432594.5625,-7.32421875,-15.13671875,-14.6484375,-2.44140625
7,1734116432598.4688,7.32421875,-52.24609375,-15.13671875,12.20703125
8,1734116432602.375,0.9765625,-17.578125,-13.18359375,0.48828125
9,1734116432606.2812,-5.37109375,31.25,-12.20703125,-15.13671875
10,1734116432610.1875,-5.37109375,0,-17.08984375,-6.34765625
11,1734116432614.0938,-2.9296875,-1.46484375,-19.04296875,-9.765625
0,1734116432618,-6.34765625,14.6484375,-15.13671875,-8.30078125
1,1734116432621.9062,-21.484375,9.27734375,-19.53125,-20.99609375
2,1734116432625.8125,-20.01953125,-10.7421875,-21.484375,-28.3203125
3,1734116432629.7188,-3.41796875,-6.8359375,-20.01953125,-25.390625
4,1734116432633.625,-9.765625,2.9296875,-20.99609375,-29.296875
5,1734116432637.5312,-20.5078125,-12.6953125,-17.08984375,-28.3203125
6,1734116432641.4375,-10.25390625,-46.875,-21.97265625,-4.39453125
7,1734116432645.3438,-7.8125,-41.9921875,-24.90234375,3.41796875
8,1734116432649.25,-22.94921875,-4.8828125,-20.5078125,-23.4375
9,1734116432653.1562,-27.34375,3.90625,-18.06640625,-20.5078125
10,1734116432657.0625,-10.25390625,-30.76171875,-17.08984375,-1.953125
11,1734116432660.9688,-12.6953125,-40.0390625,-16.11328125,-1.46484375
0,1734116432664.875,-35.64453125,13.18359375,-17.08984375,-19.53125
1,1734116432668.7812,-30.2734375,-0.9765625,-18.06640625,-16.6015625
2,1734116432672.6875,-23.4375,-18.06640625,-17.578125,-11.71875
3,1734116432676.5938,-18.06640625,-5.859375,-12.6953125,-18.06640625
4,1734116432680.5,-10.7421875,-1.46484375,-12.20703125,-16.6015625
5,1734116432684.4062,0,-27.34375,-17.578125,-4.8828125
6,1734116432688.3125,6.34765625,-51.26953125,-25.390625,-0.48828125
7,1734116432692.2188,-2.44140625,-5.859375,-23.92578125,-11.23046875
8,1734116432696.125,-6.8359375,24.4140625,-21.484375,-11.71875
9,1734116432700.0312,3.90625,-17.578125,-22.4609375,-2.44140625
10,1734116432703.9375,-6.8359375,-27.83203125,-22.4609375,-4.39453125
11,1734116432707.8438,-19.53125,5.859375,-23.92578125,-19.53125
0,1734116432711.75,-9.765625,4.39453125,-27.83203125,-18.5546875
1,1734116432715.6562,-16.6015625,-18.5546875,-29.296875,-11.71875
2,1734116432719.5625,-22.4609375,-18.06640625,-28.3203125,-20.5078125
3,1734116432723.4688,-10.25390625,1.46484375,-26.85546875,-20.99609375
4,1734116432727.375,-0.9765625,-2.44140625,-19.53125,-16.6015625
5,1734116432731.2812,-10.25390625,-24.4140625,-20.01953125,-28.3203125
6,1734116432735.1875,-11.23046875,-21.97265625,-17.578125,-30.2734375
7,1734116432739.0938,-17.578125,-17.578125,-14.6484375,-28.3203125
8,1734116432743,-23.92578125,-15.625,-18.5546875,-29.296875
9,1734116432746.9062,-9.765625,-46.875,-13.671875,-8.7890625
10,1734116432750.8125,-14.6484375,-48.33984375,-12.20703125,-7.32421875
11,1734116432754.7188,-32.71484375,7.32421875,-17.578125,-25.390625
0,1734116432758.625,-25.390625,-13.18359375,-20.01953125,-18.5546875
1,1734116432762.5312,-20.01953125,-24.4140625,-22.94921875,-19.53125
2,1734116432766.4375,-21.97265625,2.9296875,-20.01953125,-27.83203125
3,1734116432770.3438,-12.20703125,11.23046875,-14.16015625,-21.97265625
4,1734116432774.25,-5.859375,-8.7890625,-18.06640625,-16.6015625
5,1734116432778.1562,-8.7890625,-24.90234375,-18.5546875,-12.20703125
6,1734116432782.0625,-17.08984375,-22.4609375,-18.06640625,-14.16015625
7,1734116432785.9688,-23.4375,-4.39453125,-20.99609375,-17.578125
8,1734116432789.875,-12.6953125,-17.578125,-19.53125,-4.8828125
9,1734116432793.7812,-5.37109375,-42.96875,-19.53125,0.9765625
10,1734116432797.6875,-5.37109375,-5.859375,-23.92578125,-20.01953125
11,1734116432801.5938,3.41796875,14.16015625,-21.484375,-23.92578125
0,1734116432805.5,-5.37109375,-7.32421875,-16.6015625,-5.37109375
1,1734116432809.4062,-18.06640625,-5.37109375,-17.08984375,-12.20703125
2,1734116432813.3125,-10.25390625,-3.90625,-17.08984375,-22.4609375
3,1734116432817.2188,-10.7421875,-7.8125,-18.5546875,-21.484375
4,1734116432821.125,-16.11328125,-28.3203125,-18.5546875,-18.06640625
5,1734116432825.0312,-9.765625,-45.8984375,-21.484375,-8.30078125
6,1734116432828.9375,-13.18359375,-21.484375,-22.4609375,-16.6015625
7,1734116432832.8438,-23.92578125,-11.71875,-22.94921875,-25.87890625
8,1734116432836.75,-25.390625,-45.8984375,-20.99609375,-20.5078125
9,1734116432840.6562,-31.73828125,-50.78125,-20.01953125,-27.83203125
10,1734116432844.5625,-34.1796875,8.30078125,-25.390625,-48.33984375
11,1734116432848.4688,-21.97265625,2.44140625,-21.97265625,-34.66796875
0,1734116432852.375,-21.97265625,-22.4609375,-18.5546875,-18.5546875
1,1734116432856.2812,-20.99609375,-5.859375,-20.99609375,-20.5078125
2,1734116432860.1875,-15.13671875,9.27734375,-22.4609375,-20.99609375
3,1734116432864.0938,-8.30078125,-7.8125,-20.01953125,-14.16015625
4,1734116432868,-4.39453125,-19.53125,-16.6015625,-4.39453125
5,1734116432871.9062,-11.71875,-11.71875,-12.6953125,-1.46484375
6,1734116432875.8125,-8.30078125,-12.6953125,-16.6015625,-7.8125
7,1734116432879.7188,18.06640625,-17.578125,-24.90234375,-14.6484375
8,1734116432883.625,12.20703125,-51.26953125,-24.4140625,0.48828125
9,1734116432887.5312,-21.484375,-19.53125,-21.97265625,-1.953125
10,1734116432891.4375,-28.3203125,28.80859375,-21.97265625,-20.01953125
11,1734116432895.3438,-9.765625,3.90625,-20.99609375,-20.01953125
0,1734116432899.25,5.859375,3.41796875,-21.484375,-21.97265625
1,1734116432903.1562,1.46484375,17.08984375,-21.97265625,-13.18359375
2,1734116432907.0625,-4.39453125,4.39453125,-21.484375,-7.32421875
3,1734116432910.9688,-11.23046875,-10.25390625,-17.08984375,-9.27734375
4,1734116432914.875,-23.4375,-9.765625,-12.20703125,-10.25390625
5,1734116432918.7812,-15.13671875,-13.18359375,-12.6953125,-12.6953125
6,1734116432922.6875,0,-11.23046875,-13.18359375,-5.859375
7,1734116432926.5938,2.44140625,-37.59765625,-10.7421875,7.8125
8,1734116432930.5,-7.8125,-56.15234375,-12.20703125,2.9296875
9,1734116432934.4062,-38.57421875,0.48828125,-21.484375,-28.80859375
10,1734116432938.3125,-47.36328125,13.18359375,-15.625,-41.015625
11,1734116432942.2188,-26.85546875,-15.625,-13.671875,-28.3203125
0,1734116432946.125,-22.94921875,-3.90625,-20.01953125,-31.73828125
1,1734116432950.0312,-19.53125,10.7421875,-16.6015625,-37.109375
2,1734116432953.9375,-11.71875,-4.39453125,-14.6484375,-25.390625
3,1734116432957.8438,-7.32421875,-6.8359375,-18.5546875,-19.04296875
4,1734116432961.75,-0.9765625,3.41796875,-18.5546875,-21.97265625
5,1734116432965.6562,-2.9296875,-7.8125,-19.53125,-25.390625
6,1734116432969.5625,-0.48828125,-24.4140625,-23.92578125,-24.90234375
7,1734116432973.4688,-5.859375,-38.0859375,-20.99609375,-10.7421875
8,1734116432977.375,-21.97265625,-10.25390625,-17.08984375,-7.8125
9,1734116432981.2812,-27.34375,-1.953125,-7.32421875,-6.34765625
10,1734116432985.1875,-19.53125,-30.76171875,-9.765625,-14.6484375
11,1734116432989.0938,-20.99609375,-22.4609375,-18.06640625,-20.01953125
0,1734116432993,-21.97265625,13.18359375,-18.06640625,-20.01953125
1,1734116432996.9062,-12.20703125,15.13671875,-18.06640625,-22.4609375
2,1734116433000.8125,-2.44140625,-6.34765625,-8.7890625,-13.671875
3,1734116433004.7188,-18.5546875,-6.8359375,-13.18359375,-14.16015625
4,1734116433008.625,-26.85546875,-3.90625,-25.87890625,-20.99609375
5,1734116433012.5312,-19.53125,-15.625,-27.83203125,-18.5546875
6,1734116433016.4375,-5.859375,-49.8046875,-26.3671875,-2.44140625
7,1734116433020.3438,4.39453125,-53.22265625,-28.80859375,2.9296875
8,1734116433024.25,-8.7890625,3.90625,-28.80859375,-7.32421875
9,1734116433028.1562,-1.46484375,15.13671875,-24.90234375,-14.16015625
10,1734116433032.0625,-4.39453125,-20.99609375,-23.92578125,-11.23046875
11,1734116433035.9688,-14.6484375,-16.11328125,-19.53125,-5.859375
0,1734116433039.875,-9.765625,4.39453125,-17.08984375,-12.6953125
1,1734116433043.7812,1.46484375,-5.859375,-19.53125,-6.34765625
2,1734116433047.6875,21.484375,-29.78515625,-14.6484375,0
3,1734116433051.5938,2.9296875,-14.6484375,-15.13671875,-2.9296875
4,1734116433055.5,-18.5546875,-6.8359375,-12.20703125,0.9765625
5,1734116433059.4062,-6.8359375,-29.296875,-5.859375,6.8359375
6,1734116433063.3125,-0.9765625,-45.41015625,-8.7890625,5.37109375
7,1734116433067.2188,-15.625,-11.23046875,-17.578125,-11.23046875
8,1734116433071.125,-26.85546875,13.18359375,-22.94921875,-18.5546875
9,1734116433075.0312,-16.6015625,-13.671875,-17.578125,-4.8828125
10,1734116433078.9375,-14.16015625,-14.16015625,-11.71875,0.48828125
11,1734116433082.8438,-18.06640625,7.8125,-9.27734375,0
0,1734116433086.75,-12.20703125,3.90625,-5.859375,2.9296875
1,1734116433090.6562,-4.8828125,-17.08984375,-11.23046875,-8.7890625
2,1734116433094.5625,3.41796875,-20.01953125,-18.06640625,-9.765625
3,1734116433098.4688,-5.37109375,-7.8125,-18.5546875,-4.39453125
4,1734116433102.375,-13.18359375,11.23046875,-19.53125,-15.625
5,1734116433106.2812,3.90625,-27.83203125,-18.5546875,6.34765625
6,1734116433110.1875,-3.90625,-55.6640625,-20.5078125,9.765625
7,1734116433114.0938,-10.25390625,-10.25390625,-21.484375,-16.6015625
8,1734116433118,-4.39453125,6.8359375,-19.04296875,-17.08984375
9,1734116433121.9062,-9.27734375,-28.80859375,-19.53125,-3.41796875
10,1734116433125.8125,-16.6015625,-28.80859375,-23.4375,1.953125
11,1734116433129.7188,-22.94921875,20.5078125,-20.99609375,-11.23046875
0,1734116433133.625,-0.9765625,10.25390625,-14.6484375,-5.37109375
1,1734116433137.5312,8.7890625,-6.8359375,-19.53125,-1.953125
2,1734116433141.4375,-11.71875,2.44140625,-31.25,-9.27734375
3,1734116433145.3438,-25.390625,2.44140625,-34.66796875,-16.6015625
4,1734116433149.25,-20.01953125,-11.71875,-32.2265625,-4.39453125
5,1734116433153.1562,-12.6953125,-26.85546875,-28.3203125,11.23046875
6,1734116433157.0625,-3.41796875,-20.99609375,-22.4609375,1.46484375
7,1734116433160.9688,3.41796875,-13.18359375,-21.97265625,-1.46484375
8,1734116433164.875,-2.9296875,-18.5546875,-22.4609375,-6.8359375
9,1734116433168.7812,-4.39453125,-57.6171875,-23.92578125,8.7890625
10,1734116433172.6875,-8.7890625,-21.484375,-24.90234375,6.8359375
11,1734116433176.5938,-5.859375,26.85546875,-23.4375,-12.6953125
0,1734116433180.5,-3.90625,0.9765625,-23.92578125,-3.90625
1,1734116433184.4062,-17.578125,2.9296875,-30.2734375,-9.765625
2,1734116433188.3125,-21.97265625,10.7421875,-33.69140625,-13.18359375
3,1734116433192.2188,-9.27734375,0.9765625,-27.34375,-7.8125
4,1734116433196.125,3.90625,-15.625,-18.06640625,3.41796875
5,1734116433200.0312,9.765625,-25.390625,-9.765625,15.13671875
6,1734116433203.9375,1.953125,-20.99609375,-8.7890625,7.32421875
7,1734116433207.8438,-8.7890625,-10.25390625,-14.6484375,-3.41796875
8,1734116433211.75,0,-29.296875,-13.18359375,2.9296875
9,1734116433215.6562,13.18359375,-60.546875,-7.32421875,16.6015625
10,1734116433219.5625,2.44140625,-3.90625,-12.6953125,-7.8125
11,1734116433223.4688,-7.8125,25.390625,-12.20703125,-18.5546875
0,1734116433227.375,-6.8359375,-2.9296875,-10.25390625,-12.20703125
1,1734116433231.2812,-10.25390625,1.46484375,-15.13671875,-24.4140625
2,1734116433235.1875,-13.18359375,9.27734375,-12.6953125,-23.92578125
3,1734116433239.0938,-20.01953125,-1.953125,-10.25390625,-7.8125
4,1734116433243,-11.71875,-13.18359375,-14.16015625,-3.90625
5,1734116433246.9062,-8.7890625,-16.6015625,-17.08984375,-9.27734375
6,1734116433250.8125,-20.5078125,-13.671875,-19.53125,-20.5078125
7,1734116433254.7188,-8.7890625,-24.4140625,-19.04296875,-16.6015625
8,1734116433258.625,-6.8359375,-40.0390625,-17.578125,-12.6953125
9,1734116433262.5312,-19.04296875,-14.16015625,-18.06640625,-37.59765625
10,1734116433266.4375,-19.53125,-0.48828125,-19.04296875,-48.828125
11,1734116433270.3438,0.48828125,-24.4140625,-19.04296875,-35.64453125
0,1734116433274.25,2.44140625,-33.69140625,-18.06640625,-31.25
1,1734116433278.1562,-28.3203125,0.9765625,-19.53125,-37.59765625
2,1734116433282.0625,-25.390625,0.9765625,-18.5546875,-30.76171875
3,1734116433285.9688,-10.7421875,-12.20703125,-19.04296875,-20.99609375
4,1734116433289.875,-4.8828125,-8.7890625,-25.390625,-14.16015625
5,1734116433293.7812,-5.859375,-18.5546875,-24.90234375,-5.37109375
6,1734116433297.6875,-8.7890625,-24.90234375,-21.484375,-5.859375
7,1734116433301.5938,-10.25390625,-46.38671875,-24.90234375,-5.37109375
8,1734116433305.5,0,-54.6875,-24.4140625,3.90625
9,1734116433309.4062,-13.671875,7.32421875,-23.4375,-19.53125
10,1734116433313.3125,-26.3671875,10.7421875,-23.92578125,-23.92578125
11,1734116433317.2188,-8.30078125,-8.30078125,-19.53125,-6.8359375
0,1734116433321.125,-4.8828125,-6.8359375,-20.99609375,-9.765625
1,1734116433325.0312,-17.08984375,4.39453125,-24.4140625,-16.6015625
2,1734116433328.9375,-10.25390625,1.953125,-19.53125,-19.04296875
3,1734116433332.8438,5.37109375,-13.18359375,-18.5546875,-17.578125
4,1734116433336.75,-9.765625,3.41796875,-16.6015625,-23.92578125
5,1734116433340.6562,-25.390625,-0.9765625,-18.06640625,-30.2734375
6,1734116433344.5625,-15.625,-26.3671875,-20.99609375,-25.87890625
7,1734116433348.4688,-3.41796875,-42.96875,-25.390625,-25.87890625
8,1734116433352.375,-16.11328125,-6.8359375,-27.34375,-37.109375
9,1734116433356.2812,-20.99609375,18.06640625,-26.3671875,-42.48046875
10,1734116433360.1875,-7.32421875,-6.8359375,-25.87890625,-34.1796875
11,1734116433364.0938,-7.32421875,-12.6953125,-21.97265625,-12.6953125
0,1734116433368,-20.5078125,0,-17.578125,-13.18359375
1,1734116433371.9062,-9.765625,-0.9765625,-13.18359375,-12.20703125
2,1734116433375.8125,-7.32421875,-21.97265625,-9.765625,2.44140625
3,1734116433379.7188,-25.390625,-22.94921875,-15.13671875,-18.5546875
4,1734116433383.625,-25.390625,-9.765625,-20.01953125,-31.25
5,1734116433387.5312,-14.6484375,-19.53125,-15.13671875,-16.6015625
6,1734116433391.4375,1.953125,-46.875,-10.25390625,0
7,1734116433395.3438,1.46484375,-71.2890625,-11.23046875,11.71875
8,1734116433399.25,-18.06640625,-17.578125,-13.671875,-10.25390625
9,1734116433403.1562,-11.71875,20.5078125,-11.23046875,-15.625
10,1734116433407.0625,1.46484375,-3.90625,-14.16015625,-4.8828125
11,1734116433410.9688,-6.34765625,-1.46484375,-20.01953125,-23.92578125
0,1734116433414.875,-12.20703125,13.18359375,-23.92578125,-32.2265625
1,1734116433418.7812,-16.11328125,1.46484375,-20.01953125,-21.484375
2,1734116433422.6875,-19.53125,-10.25390625,-21.484375,-20.01953125
3,1734116433426.5938,-5.37109375,3.90625,-20.99609375,-27.34375
4,1734116433430.5,3.41796875,5.37109375,-17.08984375,-21.484375
5,1734116433434.4062,-15.13671875,-21.484375,-17.578125,-15.13671875
6,1734116433438.3125,-20.01953125,-47.36328125,-20.5078125,-22.94921875
7,1734116433442.2188,-12.6953125,-22.94921875,-23.4375,-28.3203125
8,1734116433446.125,-19.04296875,11.23046875,-19.04296875,-27.83203125
9,1734116433450.0312,-13.671875,-13.671875,-16.11328125,-17.578125
10,1734116433453.9375,-15.13671875,-25.87890625,-20.5078125,-7.32421875
11,1734116433457.8438,-39.55078125,6.8359375,-22.94921875,-13.18359375
0,1734116433461.75,-33.203125,15.625,-21.484375,-17.08984375
1,1734116433465.6562,-22.94921875,-4.8828125,-17.08984375,-19.53125
2,1734116433469.5625,-25.87890625,-18.06640625,-11.71875,-14.6484375
3,1734116433473.4688,-26.85546875,-0.9765625,-19.53125,-17.578125
4,1734116433477.375,-20.5078125,3.90625,-20.99609375,-10.7421875
5,1734116433481.2812,-6.34765625,-26.85546875,-16.6015625,3.41796875
6,1734116433485.1875,-10.25390625,-35.64453125,-20.01953125,-8.7890625
7,1734116433489.0938,-18.06640625,-13.18359375,-26.3671875,-20.5078125
8,1734116433493,-13.18359375,-3.90625,-32.2265625,-20.01953125
9,1734116433496.9062,0.9765625,-33.203125,-18.06640625,-7.8125
10,1734116433500.8125,1.953125,-43.9453125,-11.71875,7.8125
11,1734116433504.7188,-20.01953125,16.11328125,-21.484375,-16.11328125
0,1734116433508.625,-20.01953125,11.71875,-20.01953125,-24.90234375
1,1734116433512.5312,-19.53125,0,-15.13671875,-19.04296875
2,1734116433516.4375,-25.87890625,6.8359375,-20.5078125,-19.04296875
3,1734116433520.3438,-19.04296875,6.34765625,-27.34375,-20.01953125
4,1734116433524.25,-13.671875,-0.48828125,-19.53125,-18.5546875
5,1734116433528.1562,-14.6484375,-23.92578125,-15.625,-3.90625
6,1734116433532.0625,-28.3203125,-22.4609375,-19.53125,-10.7421875
7,1734116433535.9688,-34.1796875,-3.41796875,-21.97265625,-29.296875
8,1734116433539.875,-23.92578125,-15.13671875,-22.4609375,-20.5078125
9,1734116433543.7812,-12.20703125,-33.69140625,-23.4375,-11.71875
10,1734116433547.6875,-8.30078125,-4.39453125,-19.04296875,-21.484375
11,1734116433551.5938,-26.85546875,11.71875,-20.01953125,-34.1796875
0,1734116433555.5,-20.99609375,-17.08984375,-22.4609375,-22.4609375
1,1734116433559.4062,-3.41796875,-27.34375,-14.6484375,-7.8125
2,1734116433563.3125,-26.85546875,12.20703125,-16.6015625,-26.3671875
3,1734116433567.2188,-22.94921875,13.671875,-21.484375,-25.390625
4,1734116433571.125,-8.7890625,-12.6953125,-19.53125,-13.671875
5,1734116433575.0312,-0.9765625,-18.06640625,-20.01953125,-6.34765625
6,1734116433578.9375,-0.9765625,-15.13671875,-23.92578125,-5.37109375
7,1734116433582.8438,-16.11328125,-13.18359375,-21.97265625,-17.578125
8,1734116433586.75,-15.13671875,-37.59765625,-20.01953125,-4.8828125
9,1734116433590.6562,-9.765625,-45.41015625,-25.390625,4.8828125
10,1734116433594.5625,-15.13671875,16.6015625,-24.4140625,-13.18359375
11,1734116433598.4688,-10.7421875,23.92578125,-20.99609375,-4.39453125
0,1734116433602.375,-4.39453125,-6.34765625,-24.4140625,-0.48828125
1,1734116433606.2812,-0.48828125,-8.30078125,-30.2734375,0.9765625
2,1734116433610.1875,-7.8125,13.18359375,-27.34375,6.34765625
3,1734116433614.0938,-15.13671875,0,-15.625,-3.41796875
4,1734116433618,-5.859375,-24.90234375,-15.625,-6.8359375
5,1734116433621.9062,-3.41796875,-12.6953125,-22.94921875,-7.8125
6,1734116433625.8125,-12.20703125,-5.859375,-23.92578125,-19.04296875
7,1734116433629.7188,-23.4375,-19.53125,-20.99609375,-25.87890625
8,1734116433633.625,-21.484375,-35.15625,-16.11328125,-16.11328125
9,1734116433637.5312,-32.2265625,-1.953125,-19.53125,-20.5078125
10,1734116433641.4375,-33.69140625,22.94921875,-21.97265625,-27.83203125
11,1734116433645.3438,-16.6015625,-6.8359375,-15.625,-20.5078125
0,1734116433649.25,-21.97265625,-13.671875,-19.04296875,-21.484375
1,1734116433653.1562,-25.390625,5.859375,-24.90234375,-26.85546875
2,1734116433657.0625,-22.4609375,-0.9765625,-19.53125,-27.83203125
3,1734116433660.9688,-15.625,-38.0859375,-22.4609375,-13.18359375
4,1734116433664.875,-17.08984375,-36.62109375,-31.25,-13.671875
5,1734116433668.7812,-17.08984375,-11.23046875,-24.4140625,-23.4375
6,1734116433672.6875,-9.765625,-10.25390625,-18.5546875,-24.4140625
7,1734116433676.5938,11.23046875,-37.59765625,-19.04296875,-4.8828125
8,1734116433680.5,2.9296875,-43.9453125,-21.97265625,-3.41796875
9,1734116433684.4062,-21.97265625,8.7890625,-25.390625,-37.59765625
10,1734116433688.3125,-9.27734375,7.8125,-18.06640625,-38.0859375
11,1734116433692.2188,-24.4140625,-1.953125,-17.08984375,-25.390625
0,1734116433696.125,-36.1328125,0.9765625,-22.94921875,-23.92578125
1,1734116433700.0312,-29.78515625,0,-26.85546875,-32.2265625
2,1734116433703.9375,-22.94921875,-14.16015625,-24.90234375,-33.203125
3,1734116433707.8438,-16.11328125,-19.53125,-14.6484375,-29.78515625
4,1734116433711.75,-17.08984375,-5.859375,-9.765625,-29.78515625
5,1734116433715.6562,-8.30078125,-13.18359375,-5.859375,-20.5078125
6,1734116433719.5625,-0.9765625,-20.01953125,-8.30078125,-10.7421875
7,1734116433723.4688,10.25390625,-58.59375,-14.6484375,5.859375
8,1734116433727.375,-7.8125,-34.1796875,-18.06640625,-7.32421875
9,1734116433731.2812,-25.87890625,20.01953125,-24.4140625,-33.69140625
10,1734116433735.1875,-14.16015625,-7.8125,-21.484375,-23.92578125
11,1734116433739.0938,-20.99609375,-2.9296875,-20.5078125,-22.4609375
0,1734116433743,-27.34375,15.625,-21.97265625,-23.4375
1,1734116433746.9062,-0.9765625,-3.41796875,-12.6953125,-5.859375
2,1734116433750.8125,13.671875,-14.6484375,-10.25390625,-1.46484375
3,1734116433754.7188,-13.18359375,-4.8828125,-15.13671875,-15.625
4,1734116433758.625,-26.85546875,2.44140625,-15.13671875,-24.4140625
5,1734116433762.5312,-21.484375,-8.7890625,-19.04296875,-21.484375
6,1734116433766.4375,-15.13671875,-38.0859375,-23.92578125,-5.37109375
7,1734116433770.3438,-13.18359375,-39.55078125,-20.01953125,0.9765625
8,1734116433774.25,-15.13671875,-7.32421875,-22.4609375,-13.18359375
9,1734116433778.1562,-9.27734375,6.8359375,-24.90234375,-23.4375
10,1734116433782.0625,-1.953125,-34.66796875,-18.5546875,-14.6484375
11,1734116433785.9688,-18.06640625,-46.38671875,-21.484375,-13.671875
0,1734116433789.875,-36.62109375,10.25390625,-27.34375,-32.2265625
1,1734116433793.7812,-25.390625,1.953125,-27.34375,-26.85546875
2,1734116433797.6875,-9.765625,-9.765625,-28.3203125,-21.484375
3,1734116433801.5938,-11.23046875,1.953125,-23.92578125,-23.92578125
4,1734116433805.5,-18.5546875,2.9296875,-16.11328125,-22.4609375
5,1734116433809.4062,-11.71875,-14.16015625,-19.04296875,-20.5078125
6,1734116433813.3125,-10.7421875,-48.33984375,-23.4375,-12.20703125
7,1734116433817.2188,-19.04296875,-23.92578125,-20.5078125,-12.6953125
8,1734116433821.125,-20.01953125,16.11328125,-17.08984375,-21.484375
9,1734116433825.0312,-6.34765625,-5.859375,-17.578125,-12.20703125
10,1734116433828.9375,-2.44140625,-23.92578125,-22.4609375,-9.27734375
11,1734116433832.8438,-10.25390625,1.46484375,-23.92578125,-23.4375
0,1734116433836.75,-8.7890625,13.671875,-24.4140625,-20.01953125
1,1734116433840.6562,-12.20703125,-17.08984375,-22.4609375,-2.44140625
2,1734116433844.5625,-23.4375,-32.71484375,-20.99609375,-9.765625
3,1734116433848.4688,-19.53125,-7.8125,-16.6015625,-21.97265625
4,1734116433852.375,-13.18359375,-0.9765625,-10.25390625,-10.7421875
5,1734116433856.2812,-18.5546875,-33.69140625,-8.7890625,-1.953125
6,1734116433860.1875,-20.5078125,-35.64453125,-12.6953125,-3.41796875
7,1734116433864.0938,-19.04296875,-9.27734375,-14.16015625,-6.8359375
8,1734116433868,-22.4609375,0.9765625,-17.578125,-18.5546875
9,1734116433871.9062,-18.5546875,-32.71484375,-25.87890625,-12.20703125
10,1734116433875.8125,-21.484375,-40.52734375,-24.4140625,-7.8125
11,1734116433879.7188,-32.2265625,15.13671875,-21.97265625,-31.73828125
0,1734116433883.625,-20.5078125,7.32421875,-24.4140625,-27.83203125
1,1734116433887.5312,-10.25390625,-26.85546875,-23.92578125,-20.01953125
2,1734116433891.4375,-23.92578125,-10.7421875,-24.4140625,-30.2734375
3,1734116433895.3438,-22.94921875,13.671875,-19.53125,-35.15625
4,1734116433899.25,-3.41796875,-9.765625,-13.18359375,-20.5078125
5,1734116433903.1562,-10.25390625,-27.34375,-16.6015625,-15.625
6,1734116433907.0625,-23.92578125,-16.6015625,-14.16015625,-19.53125
7,1734116433910.9688,-17.578125,5.859375,-15.625,-16.11328125
8,1734116433914.875,-9.27734375,-6.8359375,-19.53125,-10.25390625
9,1734116433918.7812,-17.08984375,-29.78515625,-18.06640625,-8.7890625
10,1734116433922.6875,-32.71484375,3.41796875,-23.4375,-16.6015625
11,1734116433926.5938,-33.203125,10.25390625,-20.5078125,-18.06640625
0,1734116433930.5,-19.53125,-17.578125,-14.16015625,-3.41796875
1,1734116433934.4062,-15.625,-21.484375,-15.625,-4.8828125
2,1734116433938.3125,-13.671875,0,-17.08984375,-16.11328125
3,1734116433942.2188,-7.32421875,-9.27734375,-15.13671875,-11.23046875
4,1734116433946.125,-6.34765625,-36.1328125,-16.6015625,4.39453125
5,1734116433950.0312,-10.25390625,-29.78515625,-20.5078125,-1.46484375
6,1734116433953.9375,-9.27734375,-11.71875,-21.97265625,-18.06640625
7,1734116433957.8438,-5.859375,-11.23046875,-20.99609375,-10.7421875
8,1734116433961.75,-9.27734375,-42.48046875,-20.5078125,-4.39453125
9,1734116433965.6562,-12.6953125,-54.19921875,-21.484375,-0.9765625
10,1734116433969.5625,-14.16015625,11.23046875,-17.578125,-20.5078125
11,1734116433973.4688,-6.8359375,18.06640625,-15.13671875,-33.69140625
0,1734116433977.375,-18.06640625,-7.32421875,-15.13671875,-36.1328125
1,1734116433981.2812,-29.78515625,3.41796875,-21.484375,-41.015625
2,1734116433985.1875,-15.625,4.8828125,-24.4140625,-30.2734375
3,1734116433989.0938,-0.9765625,-9.27734375,-19.04296875,-6.34765625
4,1734116433993,-1.46484375,-18.06640625,-17.578125,-1.953125
5,1734116433996.9062,-0.9765625,-20.99609375,-16.6015625,-10.25390625
6,1734116434000.8125,0.9765625,-19.04296875,-16.11328125,-8.30078125
7,1734116434004.7188,1.953125,-20.01953125,-17.08984375,0.9765625
8,1734116434008.625,9.765625,-58.10546875,-14.6484375,10.7421875
9,1734116434012.5312,-2.9296875,-31.25,-13.18359375,0
10,1734116434016.4375,-12.20703125,18.5546875,-16.11328125,-19.53125
11,1734116434020.3438,-7.8125,-1.953125,-21.484375,-18.06640625
0,1734116434024.25,-11.23046875,-10.7421875,-24.4140625,-18.5546875
1,1734116434028.1562,-2.9296875,1.953125,-28.80859375,-20.5078125
2,1734116434032.0625,0.48828125,5.37109375,-29.296875,-11.23046875
3,1734116434035.9688,-11.23046875,-22.94921875,-13.671875,-5.859375
4,1734116434039.875,-10.7421875,-32.71484375,-9.27734375,-12.20703125
5,1734116434043.7812,-18.06640625,-29.78515625,-16.6015625,-18.06640625
6,1734116434047.6875,-34.1796875,-25.390625,-17.08984375,-28.3203125
7,1734116434051.5938,-22.94921875,-47.8515625,-15.625,-16.6015625
8,1734116434055.5,-7.32421875,-58.59375,-21.484375,-6.34765625
9,1734116434059.4062,-9.765625,-14.6484375,-21.97265625,-20.5078125
10,1734116434063.3125,-15.13671875,0,-14.16015625,-9.765625
11,1734116434067.2188,-2.9296875,-52.24609375,-12.20703125,13.18359375
0,1734116434071.125,-2.9296875,-53.7109375,-16.11328125,5.37109375
1,1734116434075.0312,-19.04296875,12.20703125,-17.08984375,-24.90234375
2,1734116434078.9375,0.48828125,-0.9765625,-14.6484375,-11.71875
3,1734116434082.8438,16.6015625,-4.8828125,-15.13671875,9.27734375
4,1734116434086.75,20.01953125,8.7890625,-9.27734375,14.16015625
5,1734116434090.6562,17.578125,-7.32421875,-4.39453125,22.94921875
6,1734116434094.5625,2.44140625,-23.92578125,-6.8359375,9.27734375
7,1734116434098.4688,7.8125,-35.64453125,-3.90625,19.04296875
8,1734116434102.375,11.23046875,-0.48828125,-11.71875,16.11328125
9,1734116434106.2812,2.9296875,22.94921875,-20.5078125,-5.859375
10,1734116434110.1875,8.30078125,-7.8125,-17.08984375,0.9765625
11,1734116434114.0938,6.8359375,-15.625,-10.7421875,0.48828125
0,1734116434118,-0.9765625,12.6953125,-6.34765625,-9.765625
1,1734116434121.9062,-15.625,8.7890625,-12.20703125,-18.5546875
2,1734116434125.8125,-35.15625,-13.671875,-20.99609375,-26.85546875
3,1734116434129.7188,-24.4140625,-14.16015625,-20.99609375,-34.66796875
4,1734116434133.625,-6.34765625,-9.27734375,-17.578125,-33.203125
5,1734116434137.5312,-2.9296875,-18.5546875,-12.6953125,-15.13671875
6,1734116434141.4375,2.9296875,-43.45703125,-6.34765625,2.9296875
7,1734116434145.3438,-1.46484375,-48.33984375,-5.37109375,14.6484375
8,1734116434149.25,-9.27734375,-0.9765625,0.9765625,14.16015625
9,1734116434153.1562,2.9296875,10.7421875,-0.9765625,8.30078125
10,1734116434157.0625,23.4375,-24.4140625,-10.7421875,11.23046875
11,1734116434160.9688,24.90234375,-19.04296875,-10.25390625,10.7421875
0,1734116434164.875,25.390625,12.6953125,-14.16015625,2.44140625
1,1734116434168.7812,20.01953125,-7.32421875,-17.08984375,12.6953125
2,1734116434172.6875,10.7421875,-23.92578125,-17.08984375,16.11328125
3,1734116434176.5938,7.32421875,-4.8828125,-14.6484375,5.37109375
4,1734116434180.5,4.39453125,4.8828125,-14.16015625,7.8125
5,1734116434184.4062,12.20703125,-17.08984375,-18.06640625,15.625
6,1734116434188.3125,18.5546875,-31.73828125,-15.625,5.37109375
7,1734116434192.2188,2.9296875,-6.34765625,-17.578125,-10.7421875
8,1734116434196.125,-11.71875,15.13671875,-20.5078125,-21.97265625
9,1734116434200.0312,0,-10.25390625,-16.11328125,-11.71875
10,1734116434203.9375,2.44140625,-17.08984375,-20.01953125,-10.25390625
11,1734116434207.8438,-18.5546875,10.25390625,-22.4609375,-28.80859375
0,1734116434211.75,-24.90234375,3.90625,-22.94921875,-35.15625
1,1734116434215.6562,-24.4140625,-12.6953125,-27.83203125,-38.57421875
2,1734116434219.5625,-38.0859375,-10.7421875,-25.87890625,-41.015625
3,1734116434223.4688,-41.9921875,0.48828125,-26.85546875,-34.1796875
4,1734116434227.375,-28.80859375,-10.7421875,-21.484375,-23.92578125
5,1734116434231.2812,-15.625,-50.78125,-17.578125,-11.23046875
6,1734116434235.1875,-29.296875,-73.2421875,-24.4140625,-14.6484375
7,1734116434239.0938,-39.0625,-29.296875,-27.34375,-29.296875
8,1734116434243,-15.625,-15.625,-24.4140625,-16.6015625
9,1734116434246.9062,-2.9296875,-41.015625,-27.34375,1.46484375
10,1734116434250.8125,-0.9765625,-26.3671875,-23.92578125,6.8359375
11,1734116434254.7188,-10.25390625,10.25390625,-14.6484375,-3.90625
0,1734116434258.625,-7.32421875,-9.27734375,-11.71875,-3.41796875
1,1734116434262.5312,-2.9296875,-20.01953125,-11.23046875,5.37109375
2,1734116434266.4375,0.9765625,-9.27734375,-12.20703125,9.27734375
3,1734116434270.3438,0,-0.9765625,-16.11328125,1.46484375
4,1734116434274.25,3.90625,-13.671875,-16.6015625,-2.9296875
5,1734116434278.1562,15.13671875,-33.69140625,-10.25390625,5.37109375
6,1734116434282.0625,7.8125,-24.4140625,-13.671875,7.8125
7,1734116434285.9688,-7.8125,-17.578125,-19.53125,-6.34765625
8,1734116434289.875,-7.8125,-25.87890625,-14.16015625,-16.11328125
9,1734116434293.7812,-2.44140625,-48.33984375,-15.13671875,-7.32421875
10,1734116434297.6875,-9.27734375,-11.71875,-22.94921875,-26.3671875
11,1734116434301.5938,-24.90234375,19.04296875,-21.97265625,-38.0859375
0,1734116434305.5,-19.53125,-6.34765625,-19.04296875,-22.94921875
1,1734116434309.4062,-13.18359375,-10.7421875,-14.16015625,-12.6953125
2,1734116434313.3125,-24.90234375,-4.39453125,-4.8828125,-11.71875
3,1734116434317.2188,-18.06640625,-8.30078125,-3.41796875,-15.625
4,1734116434321.125,-5.859375,-19.04296875,-5.859375,-4.8828125
5,1734116434325.0312,-5.859375,-24.90234375,-9.27734375,0.9765625
6,1734116434328.9375,-6.34765625,-16.6015625,-14.16015625,-1.953125
7,1734116434332.8438,-6.8359375,-8.30078125,-20.5078125,-2.9296875
8,1734116434336.75,0,-36.1328125,-26.85546875,-0.48828125
9,1734116434340.6562,12.20703125,-84.9609375,-27.34375,12.6953125
10,1734116434344.5625,0.9765625,-27.34375,-33.203125,0.9765625
11,1734116434348.4688,-7.32421875,18.06640625,-34.1796875,-17.578125
0,1734116434352.375,-6.8359375,-2.44140625,-26.3671875,-6.34765625
1,1734116434356.2812,-16.6015625,3.41796875,-21.484375,-8.7890625
2,1734116434360.1875,-21.484375,4.39453125,-20.01953125,-11.71875
3,1734116434364.0938,-12.20703125,-8.7890625,-17.08984375,-7.8125
4,1734116434368,-0.9765625,-13.671875,-19.53125,-5.859375
5,1734116434371.9062,-4.39453125,-13.671875,-22.4609375,-8.7890625
6,1734116434375.8125,-18.06640625,-13.18359375,-26.85546875,-23.4375
7,1734116434379.7188,-18.06640625,-18.06640625,-34.1796875,-35.64453125
8,1734116434383.625,-16.6015625,-35.64453125,-32.2265625,-33.69140625
9,1734116434387.5312,-29.296875,-8.30078125,-25.87890625,-31.25
10,1734116434391.4375,-30.2734375,4.39453125,-22.4609375,-36.1328125
11,1734116434395.3438,-27.34375,-35.15625,-18.06640625,-27.34375
0,1734116434399.25,-27.83203125,-28.3203125,-20.5078125,-15.625
1,1734116434403.1562,-32.2265625,8.7890625,-26.3671875,-16.11328125
2,1734116434407.0625,-26.85546875,5.859375,-21.97265625,-7.32421875
3,1734116434410.9688,-16.11328125,-10.7421875,-17.08984375,5.859375
4,1734116434414.875,-12.6953125,-13.18359375,-18.5546875,4.8828125
5,1734116434418.7812,-7.8125,-15.13671875,-21.97265625,-1.953125
6,1734116434422.6875,-5.859375,-17.578125,-21.484375,-1.46484375
7,1734116434426.5938,-4.8828125,-46.38671875,-16.6015625,9.27734375
8,1734116434430.5,-3.41796875,-56.640625,-16.6015625,18.06640625
9,1734116434434.4062,-7.32421875,7.8125,-11.71875,-0.48828125
10,1734116434438.3125,-2.44140625,18.06640625,-9.27734375,-2.44140625
11,1734116434442.2188,-7.8125,0.48828125,-16.11328125,-4.8828125
0,1734116434446.125,-17.08984375,2.9296875,-17.578125,-13.18359375
1,1734116434450.0312,-4.8828125,3.90625,-15.625,-19.53125
2,1734116434453.9375,-15.625,11.23046875,-19.04296875,-32.2265625
3,1734116434457.8438,-32.71484375,-4.8828125,-17.578125,-29.296875
4,1734116434461.75,-19.04296875,-8.30078125,-17.08984375,-27.34375
5,1734116434465.6562,-25.87890625,-2.9296875,-22.4609375,-29.78515625
6,1734116434469.5625,-26.85546875,-15.625,-15.13671875,-26.85546875
7,1734116434473.4688,-4.39453125,-37.109375,-14.16015625,-14.6484375
8,1734116434477.375,-2.44140625,-3.41796875,-18.06640625,-17.578125
9,1734116434481.2812,-5.859375,24.4140625,-17.08984375,-21.484375
10,1734116434485.1875,0,3.90625,-13.18359375,-3.41796875
11,1734116434489.0938,1.46484375,-1.953125,-9.27734375,3.41796875
0,1734116434493,0,11.23046875,-14.16015625,0.48828125
1,1734116434496.9062,-2.44140625,3.41796875,-19.04296875,3.90625
2,1734116434500.8125,9.27734375,-15.13671875,-18.06640625,6.8359375
3,1734116434504.7188,6.34765625,-18.5546875,-20.5078125,7.8125
4,1734116434508.625,3.90625,-13.18359375,-16.11328125,11.71875
5,1734116434512.5312,4.8828125,-9.27734375,-14.16015625,10.25390625
6,1734116434516.4375,-2.44140625,-36.1328125,-20.5078125,17.578125
7,1734116434520.3438,7.8125,-80.078125,-18.5546875,34.66796875
8,1734116434524.25,-13.671875,-24.4140625,-16.11328125,9.27734375
9,1734116434528.1562,-21.97265625,20.99609375,-14.6484375,1.46484375
10,1734116434532.0625,-4.39453125,2.9296875,-13.671875,15.13671875
11,1734116434535.9688,1.953125,8.7890625,-16.11328125,10.7421875
0,1734116434539.875,-10.25390625,20.5078125,-17.578125,0.9765625
1,1734116434543.7812,-7.32421875,4.39453125,-19.53125,-4.39453125
2,1734116434547.6875,-3.41796875,-17.578125,-22.94921875,-8.7890625
3,1734116434551.5938,-19.04296875,-1.46484375,-23.92578125,-17.08984375
4,1734116434555.5,-22.4609375,-3.41796875,-19.53125,-26.85546875
5,1734116434559.4062,-16.6015625,-32.2265625,-16.6015625,-25.390625
6,1734116434563.3125,-11.23046875,-49.8046875,-20.99609375,-7.32421875
7,1734116434567.2188,-10.25390625,-26.3671875,-29.296875,-15.625
8,1734116434571.125,-15.625,9.765625,-26.3671875,-30.76171875
9,1734116434575.0312,-12.6953125,-3.90625,-14.6484375,-16.6015625
10,1734116434578.9375,-9.765625,-25.390625,-11.23046875,-8.7890625
11,1734116434582.8438,-21.97265625,1.46484375,-20.01953125,-13.671875
0,1734116434586.75,-9.27734375,12.20703125,-22.4609375,-13.671875
1,1734116434590.6562,5.859375,-11.71875,-17.08984375,-6.8359375
2,1734116434594.5625,-11.23046875,-17.578125,-19.04296875,-5.37109375
3,1734116434598.4688,-22.4609375,3.41796875,-20.99609375,-8.30078125
4,1734116434602.375,-20.99609375,-2.44140625,-25.390625,-5.859375
5,1734116434606.2812,-11.23046875,-46.38671875,-25.87890625,6.34765625
6,1734116434610.1875,-15.625,-50.78125,-22.4609375,1.953125
7,1734116434614.0938,-23.4375,-30.2734375,-24.4140625,-10.25390625
8,1734116434618,-20.5078125,-19.53125,-26.3671875,-12.6953125
9,1734116434621.9062,-12.20703125,-44.43359375,-28.3203125,-2.9296875
10,1734116434625.8125,-7.32421875,-59.5703125,-30.76171875,0
11,1734116434629.7188,-20.01953125,2.9296875,-30.2734375,-22.94921875
0,1734116434633.625,-16.11328125,7.8125,-29.78515625,-20.99609375
1,1734116434637.5312,-0.48828125,-8.30078125,-19.53125,-21.484375
2,1734116434641.4375,-7.32421875,1.953125,-18.5546875,-30.2734375
3,1734116434645.3438,-9.27734375,6.34765625,-27.34375,-35.64453125
4,1734116434649.25,5.37109375,-14.6484375,-29.296875,-31.73828125
5,1734116434653.1562,5.37109375,-35.15625,-32.71484375,-24.90234375
6,1734116434657.0625,-1.953125,-25.87890625,-32.2265625,-30.76171875
7,1734116434660.9688,-9.765625,-12.6953125,-29.78515625,-29.296875
8,1734116434664.875,-11.23046875,-18.5546875,-31.25,-23.4375
9,1734116434668.7812,1.46484375,-34.1796875,-30.2734375,-11.23046875
10,1734116434672.6875,0.9765625,-8.7890625,-25.390625,-10.25390625
11,1734116434676.5938,-11.71875,5.37109375,-23.4375,-7.32421875
0,1734116434680.5,-25.87890625,-23.4375,-19.04296875,5.859375
1,1734116434684.4062,-22.4609375,-44.43359375,-15.625,10.25390625
2,1734116434688.3125,-19.04296875,-1.46484375,-16.6015625,-11.71875
3,1734116434692.2188,-29.78515625,7.8125,-18.06640625,-17.08984375
4,1734116434696.125,-23.92578125,-22.4609375,-17.08984375,-8.30078125
5,1734116434700.0312,-7.8125,-38.0859375,-22.4609375,-6.8359375
6,1734116434703.9375,-17.08984375,-22.94921875,-24.90234375,-18.5546875
7,1734116434707.8438,-15.13671875,-16.11328125,-20.99609375,-31.25
8,1734116434711.75,-1.953125,-46.875,-28.80859375,-13.671875
9,1734116434715.6562,-14.6484375,-65.91796875,-30.2734375,0.48828125
10,1734116434719.5625,-25.390625,-3.41796875,-21.484375,-21.484375
11,1734116434723.4688,-8.7890625,12.20703125,-18.06640625,-23.4375
0,1734116434727.375,-9.765625,-7.32421875,-25.390625,-22.94921875
1,1734116434731.2812,3.41796875,-6.8359375,-27.34375,-19.04296875
2,1734116434735.1875,17.578125,1.953125,-19.53125,-0.9765625
3,1734116434739.0938,-12.20703125,4.8828125,-20.01953125,-10.25390625
4,1734116434743,-19.53125,-15.13671875,-27.34375,-15.13671875
5,1734116434746.9062,-8.7890625,-16.6015625,-22.94921875,-6.8359375
6,1734116434750.8125,-12.20703125,-8.7890625,-20.5078125,-18.5546875
7,1734116434754.7188,-18.5546875,-5.37109375,-23.4375,-19.04296875
8,1734116434758.625,-6.34765625,-19.53125,-20.5078125,-12.20703125
9,1734116434762.5312,-1.953125,0.9765625,-19.53125,-17.08984375
10,1734116434766.4375,-17.08984375,19.04296875,-21.484375,-22.4609375
11,1734116434770.3438,-14.6484375,-15.13671875,-24.4140625,-18.5546875
0,1734116434774.25,-18.06640625,-22.94921875,-28.3203125,-23.92578125
1,1734116434778.1562,-28.80859375,-1.953125,-26.85546875,-34.1796875
2,1734116434782.0625,-20.5078125,3.90625,-20.99609375,-16.6015625
3,1734116434785.9688,-10.25390625,-13.18359375,-20.99609375,-9.27734375
4,1734116434789.875,-14.16015625,-18.06640625,-21.484375,-21.97265625
5,1734116434793.7812,-19.04296875,-16.11328125,-19.53125,-26.85546875
6,1734116434797.6875,-24.4140625,-16.6015625,-20.99609375,-15.625
7,1734116434801.5938,-15.625,-44.921875,-18.06640625,-7.32421875
8,1734116434805.5,-1.46484375,-80.56640625,-20.99609375,1.953125
9,1734116434809.4062,-18.06640625,-23.92578125,-24.90234375,-9.27734375
10,1734116434813.3125,-20.5078125,19.53125,-22.4609375,-20.5078125
11,1734116434817.2188,6.34765625,2.44140625,-19.53125,-6.8359375
0,1734116434821.125,6.34765625,3.41796875,-23.4375,-12.6953125
1,1734116434825.0312,-9.27734375,14.16015625,-23.4375,-19.53125
2,1734116434828.9375,-10.7421875,3.90625,-19.04296875,-10.25390625
3,1734116434832.8438,-3.90625,-19.04296875,-12.6953125,-3.90625
4,1734116434836.75,-14.16015625,-10.7421875,-12.20703125,-11.71875
5,1734116434840.6562,-10.7421875,-13.671875,-13.671875,-2.9296875
6,1734116434844.5625,-17.08984375,-18.5546875,-13.671875,-5.859375
7,1734116434848.4688,-21.484375,-57.6171875,-17.578125,-6.8359375
8,1734116434852.375,-23.92578125,-37.109375,-17.08984375,-16.11328125
9,1734116434856.2812,-29.296875,17.08984375,-14.6484375,-42.96875
10,1734116434860.1875,-19.53125,0.9765625,-12.6953125,-28.80859375
11,1734116434864.0938,-20.5078125,-4.39453125,-7.32421875,-15.625
0,1734116434868,-17.08984375,2.44140625,-6.8359375,-8.30078125
1,1734116434871.9062,-5.37109375,2.44140625,-11.23046875,-14.16015625
2,1734116434875.8125,-2.9296875,-14.16015625,-11.71875,-17.08984375
3,1734116434879.7188,-20.01953125,-16.11328125,-12.6953125,-19.04296875
4,1734116434883.625,-26.85546875,-14.16015625,-18.5546875,-29.296875
5,1734116434887.5312,-30.76171875,-29.296875,-21.97265625,-27.83203125
6,1734116434891.4375,-14.16015625,-53.7109375,-20.01953125,-12.20703125
7,1734116434895.3438,-9.765625,-50.78125,-18.5546875,-5.859375
8,1734116434899.25,-13.18359375,-9.27734375,-20.5078125,-18.5546875
9,1734116434903.1562,-11.23046875,9.27734375,-18.06640625,-25.390625
10,1734116434907.0625,-9.27734375,-23.4375,-24.90234375,-15.625
11,1734116434910.9688,-20.5078125,-35.64453125,-27.34375,-15.13671875
0,1734116434914.875,-36.62109375,14.16015625,-17.08984375,-35.15625
1,1734116434918.7812,-29.78515625,6.8359375,-20.5078125,-32.2265625
2,1734116434922.6875,-25.390625,-8.7890625,-23.4375,-30.76171875
3,1734116434926.5938,-35.15625,-1.46484375,-25.390625,-45.8984375
4,1734116434930.5,-41.9921875,2.44140625,-25.390625,-48.828125
5,1734116434934.4062,-28.80859375,-11.23046875,-17.08984375,-32.2265625
6,1734116434938.3125,-24.90234375,-39.0625,-15.625,-25.87890625
7,1734116434942.2188,-45.8984375,-12.6953125,-20.01953125,-48.33984375
8,1734116434946.125,-57.12890625,18.5546875,-23.92578125,-55.17578125
9,1734116434950.0312,-46.38671875,-13.18359375,-24.90234375,-37.59765625
10,1734116434953.9375,-54.19921875,-13.671875,-22.4609375,-45.41015625
11,1734116434957.8438,-49.31640625,-3.90625,-20.01953125,-53.7109375
0,1734116434961.75,-37.109375,3.90625,-21.97265625,-52.734375
1,1734116434965.6562,-34.1796875,-20.01953125,-22.4609375,-38.57421875
2,1734116434969.5625,-27.34375,-39.55078125,-16.11328125,-36.62109375
3,1734116434973.4688,-25.390625,3.41796875,-26.3671875,-45.41015625
4,1734116434977.375,-24.90234375,15.625,-30.76171875,-38.57421875
5,1734116434981.2812,-21.97265625,-29.296875,-27.83203125,-24.4140625
6,1734116434985.1875,-6.34765625,-43.9453125,-24.4140625,-11.71875
7,1734116434989.0938,-1.953125,-12.20703125,-31.73828125,-17.08984375
8,1734116434993,-8.7890625,4.8828125,-31.25,-19.53125
9,1734116434996.9062,-1.953125,-25.390625,-21.97265625,-8.30078125
10,1734116435000.8125,0.48828125,-40.0390625,-24.90234375,-4.8828125
11,1734116435004.7188,-13.18359375,13.18359375,-29.78515625,-31.25
0,1734116435008.625,-6.34765625,5.859375,-29.78515625,-34.66796875
1,1734116435012.5312,-7.8125,-16.11328125,-22.4609375,-17.578125
2,1734116435016.4375,-25.87890625,-11.23046875,-20.99609375,-21.484375
3,1734116435020.3438,-36.62109375,3.41796875,-24.90234375,-36.1328125
4,1734116435024.25,-30.2734375,-3.41796875,-23.92578125,-32.71484375
5,1734116435028.1562,-18.06640625,-45.41015625,-23.4375,-20.5078125
6,1734116435032.0625,-23.4375,-39.55078125,-21.484375,-29.296875
7,1734116435035.9688,-41.015625,4.8828125,-21.484375,-51.26953125
8,1734116435039.875,-44.43359375,-16.11328125,-19.04296875,-49.31640625
9,1734116435043.7812,-48.33984375,-35.64453125,-17.08984375,-38.57421875
10,1734116435047.6875,-59.5703125,-1.46484375,-18.06640625,-43.45703125
11,1734116435051.5938,-46.875,0,-14.6484375,-40.52734375
0,1734116435055.5,-45.8984375,-11.23046875,-19.04296875,-28.80859375
1,1734116435059.4062,-44.43359375,-9.765625,-19.53125,-21.97265625
2,1734116435063.3125,-23.4375,-10.25390625,-16.6015625,-13.18359375
3,1734116435067.2188,-22.4609375,-15.13671875,-24.90234375,-5.37109375
4,1734116435071.125,-11.23046875,-50.29296875,-27.34375,0
5,1734116435075.0312,0.48828125,-54.6875,-24.90234375,4.39453125
6,1734116435078.9375,0,-15.13671875,-20.01953125,2.44140625
7,1734116435082.8438,0.9765625,-4.8828125,-20.01953125,4.39453125
8,1734116435086.75,8.30078125,-38.0859375,-25.390625,19.04296875
9,1734116435090.6562,18.06640625,-53.7109375,-23.4375,15.625
10,1734116435094.5625,-1.953125,4.8828125,-16.11328125,-13.671875
11,1734116435098.4688,-8.30078125,13.671875,-18.06640625,-16.6015625
0,1734116435102.375,0.9765625,-6.8359375,-25.87890625,-19.04296875
1,1734116435106.2812,-7.32421875,-1.953125,-22.94921875,-23.4375
2,1734116435110.1875,-19.53125,0.48828125,-22.4609375,-23.4375
3,1734116435114.0938,-29.296875,-9.27734375,-19.04296875,-32.2265625
4,1734116435118,-27.34375,-22.94921875,-16.6015625,-36.62109375
5,1734116435121.9062,-17.08984375,-24.4140625,-16.11328125,-26.3671875
6,1734116435125.8125,-18.06640625,-23.4375,-15.625,-26.85546875
7,1734116435129.7188,-30.76171875,-16.6015625,-23.4375,-42.48046875
8,1734116435133.625,-17.08984375,-53.7109375,-22.94921875,-27.34375
9,1734116435137.5312,-16.11328125,-32.2265625,-18.06640625,-14.6484375
10,1734116435141.4375,-38.0859375,24.4140625,-12.6953125,-28.80859375
11,1734116435145.3438,-14.6484375,-5.37109375,-14.16015625,-7.8125
0,1734116435149.25,0,-14.16015625,-18.06640625,5.37109375
1,1734116435153.1562,-14.6484375,1.46484375,-15.625,-9.27734375
2,1734116435157.0625,-14.16015625,1.953125,-12.20703125,-7.32421875
3,1734116435160.9688,-2.44140625,-8.7890625,-15.625,3.90625
4,1734116435164.875,-9.27734375,-5.859375,-20.99609375,6.34765625
5,1734116435168.7812,-7.8125,-11.23046875,-19.53125,4.8828125
6,1734116435172.6875,7.8125,-20.5078125,-11.23046875,7.32421875
7,1734116435176.5938,9.765625,-41.9921875,-12.20703125,17.08984375
8,1734116435180.5,13.671875,-61.03515625,-17.08984375,16.11328125
9,1734116435184.4062,1.953125,-10.7421875,-19.04296875,-5.37109375
10,1734116435188.3125,-1.953125,8.30078125,-20.5078125,-13.671875
11,1734116435192.2188,-12.20703125,-20.5078125,-24.4140625,-13.671875
0,1734116435196.125,-20.99609375,-16.6015625,-25.390625,-17.578125
1,1734116435200.0312,-19.53125,-1.46484375,-15.13671875,-27.34375
2,1734116435203.9375,-11.23046875,-11.71875,-14.6484375,-19.53125
3,1734116435207.8438,-8.30078125,-18.5546875,-19.53125,-15.625
4,1734116435211.75,-21.484375,-14.6484375,-20.5078125,-15.625
5,1734116435215.6562,-19.04296875,-20.01953125,-22.4609375,-14.16015625
6,1734116435219.5625,-15.13671875,-35.15625,-27.34375,-10.25390625
7,1734116435223.4688,-13.671875,-38.57421875,-25.87890625,-7.8125
8,1734116435227.375,-17.08984375,-5.37109375,-16.6015625,-18.5546875
9,1734116435231.2812,-26.3671875,10.7421875,-16.11328125,-14.16015625
10,1734116435235.1875,-7.8125,-26.85546875,-18.5546875,-3.90625
11,1734116435239.0938,2.9296875,-51.26953125,-16.6015625,2.9296875
0,1734116435243,-17.08984375,-8.7890625,-16.6015625,-5.37109375
1,1734116435246.9062,-10.25390625,0.9765625,-15.625,-10.25390625
2,1734116435250.8125,13.671875,-25.390625,-12.6953125,-1.46484375
3,1734116435254.7188,20.01953125,-20.99609375,-8.30078125,-1.953125
4,1734116435258.625,12.20703125,0.48828125,-13.671875,-14.16015625
5,1734116435262.5312,1.46484375,-8.30078125,-19.04296875,-7.8125
6,1734116435266.4375,12.20703125,-53.7109375,-19.04296875,17.578125
7,1734116435270.3438,22.4609375,-65.4296875,-17.08984375,12.6953125
8,1734116435274.25,-5.37109375,-7.32421875,-16.6015625,-17.08984375
9,1734116435278.1562,-11.71875,8.7890625,-15.13671875,-19.53125
10,1734116435282.0625,20.5078125,-34.1796875,-9.765625,-0.9765625
11,1734116435285.9688,10.7421875,-23.92578125,-10.7421875,12.6953125
0,1734116435289.875,-8.30078125,7.32421875,-12.6953125,-3.90625
1,1734116435293.7812,-13.18359375,-8.30078125,-9.765625,-20.99609375
2,1734116435297.6875,-18.06640625,-9.27734375,-16.6015625,-21.97265625
3,1734116435301.5938,-14.6484375,1.46484375,-18.5546875,-21.484375
4,1734116435305.5,-18.06640625,-0.9765625,-18.5546875,-19.53125
5,1734116435309.4062,-23.92578125,-17.578125,-23.92578125,-21.97265625
6,1734116435313.3125,-2.9296875,-60.546875,-19.04296875,-0.48828125
7,1734116435317.2188,-0.9765625,-35.15625,-21.97265625,0
8,1734116435321.125,-20.5078125,5.37109375,-21.97265625,-20.5078125
9,1734116435325.0312,-28.3203125,-22.4609375,-20.99609375,-23.92578125
10,1734116435328.9375,-32.2265625,-28.80859375,-19.04296875,-23.92578125
11,1734116435332.8438,-23.4375,-13.18359375,-17.08984375,-12.6953125
0,1734116435336.75,-6.34765625,-8.7890625,-21.97265625,-2.44140625
1,1734116435340.6562,-3.41796875,-24.90234375,-23.4375,-0.9765625
2,1734116435344.5625,-1.953125,-22.94921875,-19.04296875,-3.41796875
3,1734116435348.4688,-10.25390625,-3.41796875,-17.578125,-5.37109375
4,1734116435352.375,-9.27734375,-16.6015625,-16.6015625,-0.9765625
5,1734116435356.2812,4.8828125,-44.43359375,-17.08984375,4.39453125
6,1734116435360.1875,-0.9765625,-60.546875,-20.5078125,-2.9296875
7,1734116435364.0938,-12.20703125,-24.4140625,-16.6015625,-21.97265625
8,1734116435368,-21.97265625,-1.953125,-13.671875,-34.66796875
9,1734116435371.9062,-19.04296875,-26.3671875,-15.625,-23.4375
10,1734116435375.8125,-18.5546875,-23.92578125,-21.97265625,-27.83203125
11,1734116435379.7188,-26.85546875,10.25390625,-21.97265625,-41.015625
0,1734116435383.625,-18.5546875,3.41796875,-14.6484375,-21.484375
1,1734116435387.5312,-14.6484375,-4.8828125,-12.6953125,-12.20703125
2,1734116435391.4375,-21.484375,0.48828125,-16.11328125,-18.5546875
3,1734116435395.3438,-22.4609375,1.46484375,-17.08984375,-22.4609375
4,1734116435399.25,-15.13671875,-17.578125,-14.16015625,-28.80859375
5,1734116435403.1562,-6.8359375,-43.45703125,-19.53125,-24.90234375
6,1734116435407.0625,-18.5546875,-30.76171875,-24.90234375,-28.3203125
7,1734116435410.9688,-24.4140625,-16.6015625,-19.53125,-20.5078125
8,1734116435414.875,-16.11328125,-16.6015625,-11.71875,-5.859375
9,1734116435418.7812,-9.27734375,-50.78125,-12.20703125,-1.953125
10,1734116435422.6875,-13.671875,-23.92578125,-19.53125,-7.32421875
11,1734116435426.5938,-22.94921875,6.34765625,-24.4140625,-16.11328125
0,1734116435430.5,-27.34375,-22.4609375,-22.4609375,-16.6015625
1,1734116435434.4062,-15.625,-18.5546875,-15.13671875,-21.97265625
2,1734116435438.3125,4.8828125,1.46484375,-14.6484375,-29.296875
3,1734116435442.2188,-4.39453125,4.8828125,-16.11328125,-27.34375
4,1734116435446.125,-21.97265625,-12.20703125,-14.16015625,-17.578125
5,1734116435450.0312,-23.4375,-23.92578125,-11.71875,-6.34765625
6,1734116435453.9375,-22.94921875,-8.7890625,-20.5078125,-22.4609375
7,1734116435457.8438,-22.4609375,-2.44140625,-24.4140625,-37.59765625
8,1734116435461.75,-20.01953125,-30.2734375,-18.5546875,-32.71484375
9,1734116435465.6562,-3.41796875,-70.3125,-16.6015625,-7.32421875
10,1734116435469.5625,-13.18359375,-14.16015625,-15.625,-17.578125
11,1734116435473.4688,-26.85546875,20.99609375,-8.7890625,-38.57421875
0,1734116435477.375,-29.296875,-7.32421875,-11.23046875,-34.66796875
1,1734116435481.2812,-46.875,-0.48828125,-16.11328125,-28.3203125
2,1734116435485.1875,-33.203125,5.859375,-12.20703125,-19.04296875
3,1734116435489.0938,-20.99609375,-5.859375,-11.23046875,-6.8359375
4,1734116435493,-24.4140625,-17.578125,-15.625,-1.953125
5,1734116435496.9062,-11.71875,-13.671875,-16.6015625,-0.9765625
6,1734116435500.8125,5.859375,-5.37109375,-16.6015625,2.9296875
7,1734116435504.7188,1.46484375,-9.27734375,-19.04296875,-3.41796875
8,1734116435508.625,-15.13671875,-30.2734375,-16.6015625,-5.859375
9,1734116435512.5312,-22.4609375,-5.37109375,-14.6484375,-18.06640625
10,1734116435516.4375,-25.390625,19.04296875,-13.671875,-24.4140625
11,1734116435520.3438,-7.8125,-11.23046875,-11.71875,-15.13671875
0,1734116435524.25,5.37109375,-17.08984375,-9.27734375,-2.9296875
1,1734116435528.1562,-8.30078125,11.71875,-9.765625,-11.71875
2,1734116435532.0625,-5.37109375,16.11328125,-10.25390625,-19.53125
3,1734116435535.9688,-2.9296875,-6.34765625,-17.08984375,-15.13671875
4,1734116435539.875,-3.90625,-7.8125,-20.99609375,-22.4609375
5,1734116435543.7812,3.41796875,-5.37109375,-20.99609375,-26.3671875
6,1734116435547.6875,-0.9765625,-11.71875,-20.99609375,-21.484375
7,1734116435551.5938,0.48828125,-37.109375,-15.13671875,-12.20703125
8,1734116435555.5,-1.953125,-59.08203125,-15.625,-5.37109375
9,1734116435559.4062,-40.0390625,-4.39453125,-20.01953125,-26.85546875
10,1734116435563.3125,-38.57421875,18.06640625,-18.06640625,-31.73828125
11,1734116435567.2188,-11.23046875,11.23046875,-16.6015625,-23.4375
0,1734116435571.125,-2.44140625,19.53125,-16.6015625,-16.6015625
1,1734116435575.0312,-3.41796875,12.6953125,-18.5546875,-12.6953125
2,1734116435578.9375,-3.90625,-4.39453125,-11.23046875,-1.46484375
3,1734116435582.8438,-9.765625,-12.6953125,-11.23046875,5.37109375
4,1734116435586.75,-22.94921875,-0.9765625,-15.625,-12.6953125
5,1734116435590.6562,-20.5078125,-2.9296875,-12.6953125,-17.578125
6,1734116435594.5625,-16.11328125,-9.765625,-17.578125,-19.04296875
7,1734116435598.4688,-5.859375,-32.2265625,-10.7421875,-3.90625
8,1734116435602.375,-2.44140625,-4.8828125,-14.16015625,-12.6953125
9,1734116435606.2812,-11.71875,28.80859375,-20.01953125,-36.1328125
10,1734116435610.1875,-0.9765625,-8.30078125,-14.16015625,-23.4375
11,1734116435614.0938,-7.32421875,-14.6484375,-20.5078125,-20.01953125
0,1734116435618,-21.484375,0.48828125,-25.390625,-26.85546875
1,1734116435621.9062,-15.13671875,-1.953125,-22.4609375,-21.484375
2,1734116435625.8125,-5.859375,-12.20703125,-19.53125,-2.9296875
3,1734116435629.7188,1.953125,-9.765625,-22.4609375,-7.8125
4,1734116435633.625,-10.25390625,-18.5546875,-25.87890625,-16.6015625
5,1734116435637.5312,-19.04296875,-24.90234375,-27.83203125,-25.87890625
6,1734116435641.4375,-20.5078125,-31.25,-21.97265625,-16.6015625
7,1734116435645.3438,-17.578125,-66.40625,-12.6953125,5.37109375
8,1734116435649.25,-18.5546875,-20.5078125,-18.5546875,-6.34765625
9,1734116435653.1562,-32.71484375,13.671875,-23.92578125,-14.16015625
10,1734116435657.0625,-11.71875,-20.01953125,-22.4609375,-4.39453125
11,1734116435660.9688,5.859375,-7.32421875,-21.484375,-13.18359375
0,1734116435664.875,-13.671875,14.6484375,-19.04296875,-21.484375
1,1734116435668.7812,-20.99609375,4.8828125,-16.11328125,-7.8125
2,1734116435672.6875,-13.18359375,-4.39453125,-10.25390625,1.953125
3,1734116435676.5938,-9.765625,6.34765625,-12.6953125,-5.859375
4,1734116435680.5,-18.5546875,8.7890625,-18.06640625,-9.27734375
5,1734116435684.4062,-22.4609375,-12.20703125,-20.01953125,-9.765625
6,1734116435688.3125,3.41796875,-42.48046875,-24.4140625,6.8359375
7,1734116435692.2188,0.9765625,-25.87890625,-17.578125,9.27734375
8,1734116435696.125,-13.18359375,19.53125,-18.06640625,-18.06640625
9,1734116435700.0312,-10.25390625,-0.48828125,-19.04296875,-16.6015625
10,1734116435703.9375,-2.9296875,-30.76171875,-19.53125,0.48828125
11,1734116435707.8438,-1.953125,-0.48828125,-20.99609375,-10.25390625
0,1734116435711.75,-5.37109375,2.44140625,-19.53125,-21.97265625
1,1734116435715.6562,-8.7890625,-24.4140625,-21.97265625,-19.04296875
2,1734116435719.5625,-9.27734375,-18.5546875,-20.99609375,-15.13671875
3,1734116435723.4688,-3.90625,3.90625,-18.5546875,-4.39453125
4,1734116435727.375,8.7890625,7.8125,-19.53125,1.953125
5,1734116435731.2812,15.625,-30.76171875,-20.5078125,12.20703125
6,1734116435735.1875,12.20703125,-40.52734375,-25.390625,6.8359375
7,1734116435739.0938,-0.48828125,-15.625,-25.390625,-6.8359375
8,1734116435743,-5.859375,-5.859375,-24.4140625,-12.20703125
9,1734116435746.9062,6.8359375,-39.0625,-25.87890625,-1.46484375
10,1734116435750.8125,0.48828125,-53.22265625,-25.390625,6.34765625
11,1734116435754.7188,-6.8359375,2.9296875,-24.4140625,-4.8828125
0,1734116435758.625,0.48828125,8.30078125,-20.99609375,-5.859375
1,1734116435762.5312,9.27734375,-16.11328125,-17.08984375,-2.9296875
2,1734116435766.4375,12.6953125,-6.8359375,-14.6484375,-1.46484375
3,1734116435770.3438,2.9296875,10.25390625,-18.06640625,-2.9296875
4,1734116435774.25,4.8828125,-3.90625,-15.625,3.90625
5,1734116435778.1562,5.859375,-18.5546875,-15.625,10.7421875
6,1734116435782.0625,-0.9765625,-27.83203125,-17.08984375,9.765625
7,1734116435785.9688,-10.7421875,-11.71875,-15.13671875,-4.39453125
8,1734116435789.875,0,-18.5546875,-13.671875,-5.37109375
9,1734116435793.7812,8.7890625,-34.66796875,-11.71875,-4.8828125
10,1734116435797.6875,-12.20703125,-0.48828125,-11.23046875,-20.5078125
11,1734116435801.5938,-5.37109375,4.39453125,-15.13671875,-17.08984375
0,1734116435805.5,-10.25390625,-32.71484375,-19.53125,-13.18359375
1,1734116435809.4062,-20.5078125,-34.1796875,-19.53125,-11.23046875
2,1734116435813.3125,-22.4609375,1.46484375,-16.6015625,-9.765625
3,1734116435817.2188,-21.484375,0.48828125,-15.13671875,-12.20703125
4,1734116435821.125,-7.32421875,-29.296875,-14.6484375,-2.44140625
5,1734116435825.0312,4.8828125,-33.69140625,-15.13671875,-0.9765625
6,1734116435828.9375,12.20703125,-20.99609375,-16.6015625,-4.39453125
7,1734116435832.8438,1.953125,-12.6953125,-20.01953125,0
8,1734116435836.75,4.8828125,-36.62109375,-23.4375,12.20703125
9,1734116435840.6562,14.16015625,-55.17578125,-23.4375,10.25390625
10,1734116435844.5625,-20.5078125,4.8828125,-24.90234375,-23.92578125
11,1734116435848.4688,-43.45703125,6.34765625,-22.94921875,-34.66796875
0,1734116435852.375,-29.296875,-17.578125,-16.11328125,-23.4375
1,1734116435856.2812,-19.53125,-8.30078125,-17.578125,-25.87890625
2,1734116435860.1875,-11.71875,-16.11328125,-17.08984375,-20.01953125
3,1734116435864.0938,-19.04296875,-16.11328125,-17.08984375,-8.7890625
4,1734116435868,-24.90234375,-15.625,-20.5078125,-13.18359375
5,1734116435871.9062,-13.18359375,-15.625,-17.08984375,-7.32421875
6,1734116435875.8125,-5.859375,-12.6953125,-12.6953125,-4.39453125
7,1734116435879.7188,-5.37109375,-7.8125,-15.625,-7.32421875
8,1734116435883.625,0.48828125,-33.203125,-17.578125,3.41796875
9,1734116435887.5312,-7.8125,-16.11328125,-20.5078125,2.44140625
10,1734116435891.4375,-31.25,10.7421875,-22.94921875,-20.01953125
11,1734116435895.3438,-34.1796875,-19.04296875,-15.13671875,-17.578125
0,1734116435899.25,-31.73828125,-19.53125,-14.6484375,-4.8828125
1,1734116435903.1562,-21.97265625,-0.9765625,-18.06640625,-17.578125
2,1734116435907.0625,-12.20703125,-11.23046875,-16.6015625,-17.08984375
3,1734116435910.9688,-24.90234375,-20.99609375,-15.13671875,-11.71875
4,1734116435914.875,-13.18359375,-25.87890625,-16.11328125,-5.859375
5,1734116435918.7812,6.34765625,-27.34375,-14.16015625,-3.41796875
6,1734116435922.6875,6.34765625,-20.99609375,-15.625,3.41796875
7,1734116435926.5938,1.46484375,-37.59765625,-17.08984375,8.30078125
8,1734116435930.5,4.8828125,-87.890625,-16.11328125,16.6015625
9,1734116435934.4062,-13.18359375,-38.57421875,-22.4609375,-13.671875
10,1734116435938.3125,-31.25,13.18359375,-25.87890625,-32.2265625
11,1734116435942.2188,-24.90234375,-9.27734375,-24.90234375,-21.97265625
0,1734116435946.125,-22.4609375,-6.34765625,-19.53125,-29.78515625
1,1734116435950.0312,-23.92578125,-0.48828125,-20.99609375,-24.4140625
2,1734116435953.9375,-19.04296875,-17.08984375,-24.90234375,-17.08984375
3,1734116435957.8438,-6.34765625,-18.06640625,-22.94921875,-12.20703125
4,1734116435961.75,-9.765625,-9.27734375,-21.484375,-11.23046875
5,1734116435965.6562,-22.4609375,-31.73828125,-19.04296875,-13.18359375
6,1734116435969.5625,-31.73828125,-38.0859375,-20.99609375,-13.671875
7,1734116435973.4688,-18.5546875,-64.453125,-22.4609375,-8.7890625
8,1734116435977.375,-24.4140625,-38.0859375,-24.4140625,-13.671875
9,1734116435981.2812,-29.296875,16.11328125,-22.4609375,-28.3203125
10,1734116435985.1875,-16.6015625,-12.6953125,-14.6484375,-25.87890625
11,1734116435989.0938,-12.6953125,-20.99609375,-17.578125,-26.85546875
0,1734116435993,-17.08984375,-4.39453125,-20.99609375,-29.78515625
1,1734116435996.9062,-25.390625,-1.953125,-20.99609375,-20.01953125
2,1734116436000.8125,-14.16015625,-17.578125,-20.99609375,-11.71875
3,1734116436004.7188,-5.37109375,-22.4609375,-24.4140625,-8.30078125
4,1734116436008.625,-0.9765625,-13.671875,-25.87890625,-5.859375
5,1734116436012.5312,-1.953125,-12.6953125,-18.5546875,-12.6953125
6,1734116436016.4375,5.37109375,-42.96875,-18.5546875,4.39453125
7,1734116436020.3438,14.6484375,-53.7109375,-19.53125,9.27734375
8,1734116436024.25,7.32421875,-2.9296875,-18.5546875,-5.37109375
9,1734116436028.1562,6.34765625,14.16015625,-16.11328125,-1.953125
10,1734116436032.0625,-0.9765625,-38.57421875,-13.18359375,9.27734375
11,1734116436035.9688,-5.37109375,-40.0390625,-15.625,0.48828125
0,1734116436039.875,-1.46484375,20.01953125,-20.01953125,-28.80859375
1,1734116436043.7812,-16.6015625,12.6953125,-20.99609375,-41.9921875
2,1734116436047.6875,-31.25,-7.8125,-17.578125,-34.1796875
3,1734116436051.5938,-25.87890625,-6.34765625,-16.11328125,-28.80859375
4,1734116436055.5,-30.76171875,-0.9765625,-19.04296875,-37.59765625
5,1734116436059.4062,-20.01953125,-16.6015625,-17.578125,-20.01953125
6,1734116436063.3125,-2.44140625,-42.96875,-10.7421875,-0.9765625
7,1734116436067.2188,-19.53125,-6.8359375,-13.18359375,-21.484375
8,1734116436071.125,-41.015625,23.92578125,-21.97265625,-37.109375
9,1734116436075.0312,-29.78515625,-8.30078125,-16.6015625,-20.99609375
10,1734116436078.9375,-23.92578125,-16.11328125,-15.13671875,-18.06640625
11,1734116436082.8438,-21.484375,-7.32421875,-22.94921875,-25.87890625
0,1734116436086.75,-16.6015625,-9.27734375,-21.97265625,-28.80859375
1,1734116436090.6562,-4.39453125,-28.80859375,-22.94921875,-19.04296875
2,1734116436094.5625,-14.16015625,-33.203125,-20.5078125,-12.20703125
3,1734116436098.4688,-31.25,0.48828125,-20.5078125,-20.99609375
4,1734116436102.375,-23.92578125,-0.48828125,-25.390625,-17.08984375
5,1734116436106.2812,-16.11328125,-38.57421875,-25.87890625,4.39453125
6,1734116436110.1875,-0.9765625,-40.0390625,-20.5078125,6.34765625
7,1734116436114.0938,0.9765625,-12.20703125,-19.53125,-3.90625
8,1734116436118,-5.859375,4.8828125,-31.73828125,-13.18359375
9,1734116436121.9062,-2.44140625,-26.85546875,-29.78515625,2.9296875
10,1734116436125.8125,-11.71875,-43.45703125,-25.87890625,5.859375
11,1734116436129.7188,-20.01953125,11.23046875,-25.87890625,-24.4140625
0,1734116436133.625,-5.37109375,-2.44140625,-22.4609375,-16.6015625
1,1734116436137.5312,-11.23046875,-14.16015625,-25.87890625,-11.23046875
2,1734116436141.4375,-12.6953125,-12.20703125,-25.390625,-20.5078125
3,1734116436145.3438,-13.18359375,0.9765625,-24.90234375,-37.109375
4,1734116436149.25,-31.73828125,4.8828125,-23.92578125,-29.78515625
5,1734116436153.1562,-28.80859375,-42.48046875,-23.4375,-14.16015625
6,1734116436157.0625,-22.4609375,-38.0859375,-23.4375,-27.34375
7,1734116436160.9688,-20.99609375,9.27734375,-20.5078125,-44.43359375
8,1734116436164.875,-23.4375,3.41796875,-30.76171875,-42.48046875
9,1734116436168.7812,-21.97265625,-18.5546875,-28.80859375,-28.3203125
10,1734116436172.6875,-22.94921875,-1.46484375,-20.99609375,-28.80859375
11,1734116436176.5938,-24.4140625,4.39453125,-24.4140625,-41.50390625
0,1734116436180.5,-14.6484375,-16.6015625,-21.484375,-38.0859375
1,1734116436184.4062,-22.4609375,-14.16015625,-20.5078125,-24.90234375
2,1734116436188.3125,-35.15625,-2.44140625,-21.484375,-25.87890625
3,1734116436192.2188,-23.92578125,-7.8125,-20.99609375,-34.66796875
4,1734116436196.125,-12.6953125,-23.4375,-16.6015625,-19.04296875
5,1734116436200.0312,-24.90234375,-32.71484375,-19.53125,-14.16015625
6,1734116436203.9375,-33.69140625,-28.3203125,-23.4375,-18.5546875
7,1734116436207.8438,-30.76171875,-21.97265625,-23.4375,-18.5546875
8,1734116436211.75,-21.97265625,-43.9453125,-18.06640625,-14.16015625
9,1734116436215.6562,5.859375,-82.03125,-16.6015625,1.46484375
10,1734116436219.5625,-3.90625,-26.85546875,-23.4375,-11.23046875
11,1734116436223.4688,-24.90234375,15.13671875,-25.87890625,-23.92578125
0,1734116436227.375,-10.7421875,-3.41796875,-24.90234375,-16.11328125
1,1734116436231.2812,-18.06640625,0.48828125,-21.484375,-20.5078125
2,1734116436235.1875,-28.80859375,-1.953125,-20.01953125,-17.08984375
3,1734116436239.0938,-14.16015625,-14.16015625,-24.90234375,-19.53125
4,1734116436243,-12.6953125,-25.390625,-28.3203125,-27.83203125
5,1734116436246.9062,-38.57421875,-27.34375,-27.83203125,-32.2265625
6,1734116436250.8125,-33.203125,-20.01953125,-24.90234375,-35.15625
7,1734116436254.7188,-17.08984375,-10.25390625,-22.4609375,-37.59765625
8,1734116436258.625,-15.13671875,-57.12890625,-21.97265625,-27.34375
9,1734116436262.5312,-24.4140625,-35.15625,-23.4375,-33.203125
10,1734116436266.4375,-32.2265625,29.296875,-22.94921875,-48.33984375
11,1734116436270.3438,-26.85546875,-6.34765625,-12.20703125,-29.296875
0,1734116436274.25,-21.97265625,-17.578125,-12.20703125,-13.671875
1,1734116436278.1562,-25.390625,10.7421875,-17.578125,-13.18359375
2,1734116436282.0625,-31.25,6.34765625,-16.11328125,-18.5546875
3,1734116436285.9688,-31.25,-12.6953125,-15.625,-23.92578125
4,1734116436289.875,-14.16015625,-14.6484375,-16.6015625,-13.18359375
5,1734116436293.7812,-20.99609375,-12.20703125,-16.6015625,-6.34765625
6,1734116436297.6875,-35.64453125,-12.6953125,-12.20703125,-2.44140625
7,1734116436301.5938,-12.20703125,-41.015625,-9.765625,16.11328125
8,1734116436305.5,1.46484375,-58.59375,-12.6953125,26.3671875
9,1734116436309.4062,-10.25390625,-9.765625,-18.06640625,-4.8828125
10,1734116436313.3125,-6.8359375,1.46484375,-24.90234375,-21.97265625
11,1734116436317.2188,-0.48828125,-8.30078125,-25.390625,-2.9296875
0,1734116436321.125,-14.6484375,6.34765625,-21.484375,-4.8828125
1,1734116436325.0312,-9.765625,18.5546875,-22.4609375,-5.859375
2,1734116436328.9375,-6.8359375,2.44140625,-20.99609375,5.37109375
3,1734116436332.8438,-21.484375,-10.7421875,-22.4609375,-9.27734375
4,1734116436336.75,-16.11328125,-2.44140625,-18.5546875,-27.83203125
5,1734116436340.6562,-12.20703125,-6.34765625,-16.6015625,-25.87890625
6,1734116436344.5625,-10.7421875,-20.5078125,-19.53125,-18.5546875
7,1734116436348.4688,-9.27734375,-32.2265625,-21.484375,-25.390625
8,1734116436352.375,-21.484375,-3.41796875,-26.3671875,-39.0625
9,1734116436356.2812,-22.4609375,17.08984375,-21.97265625,-44.43359375
10,1734116436360.1875,-24.4140625,-13.671875,-16.6015625,-37.59765625
11,1734116436364.0938,-25.390625,-26.85546875,-16.6015625,-28.80859375
0,1734116436368,-18.5546875,-14.6484375,-14.6484375,-24.4140625
1,1734116436371.9062,-20.99609375,2.44140625,-16.6015625,-29.296875
2,1734116436375.8125,-16.6015625,-18.06640625,-21.484375,-20.99609375
3,1734116436379.7188,-20.99609375,-34.66796875,-29.296875,-12.6953125
4,1734116436383.625,-24.90234375,-5.859375,-24.90234375,-18.06640625
5,1734116436387.5312,-5.859375,-5.37109375,-18.5546875,-10.25390625
6,1734116436391.4375,12.6953125,-34.66796875,-15.625,3.90625
7,1734116436395.3438,10.7421875,-48.828125,-17.578125,4.39453125
8,1734116436399.25,-6.8359375,9.765625,-21.484375,-8.30078125
9,1734116436403.1562,-2.9296875,21.97265625,-21.97265625,-0.9765625
10,1734116436407.0625,13.671875,-14.6484375,-25.87890625,-3.90625
11,1734116436410.9688,-4.8828125,-3.41796875,-28.80859375,-24.90234375
0,1734116436414.875,-21.97265625,17.578125,-25.390625,-20.5078125
1,1734116436418.7812,-13.18359375,0.9765625,-20.5078125,-7.8125
2,1734116436422.6875,-9.27734375,-18.5546875,-20.99609375,-5.37109375
3,1734116436426.5938,-17.578125,-11.23046875,-27.34375,-10.7421875
4,1734116436430.5,-25.87890625,-3.90625,-27.83203125,-20.99609375
5,1734116436434.4062,-16.11328125,-12.6953125,-22.94921875,-11.23046875
6,1734116436438.3125,-4.8828125,-58.10546875,-20.99609375,-2.44140625
7,1734116436442.2188,-23.92578125,-48.828125,-26.3671875,-18.06640625
8,1734116436446.125,-43.9453125,11.23046875,-26.85546875,-46.38671875
9,1734116436450.0312,-27.34375,-8.7890625,-27.34375,-42.48046875
10,1734116436453.9375,-13.18359375,-21.484375,-29.296875,-32.71484375
11,1734116436457.8438,-22.4609375,-8.7890625,-22.94921875,-31.25
0,1734116436461.75,-16.6015625,0,-24.4140625,-32.71484375
1,1734116436465.6562,1.953125,-17.578125,-21.97265625,-23.92578125
2,1734116436469.5625,9.765625,-19.04296875,-14.16015625,-11.71875
3,1734116436473.4688,-2.44140625,11.23046875,-16.6015625,-12.6953125
4,1734116436477.375,-5.37109375,7.32421875,-14.6484375,-6.8359375
5,1734116436481.2812,13.18359375,-39.55078125,-8.30078125,9.765625
6,1734116436485.1875,13.671875,-46.875,-10.25390625,5.37109375
7,1734116436489.0938,13.18359375,-14.16015625,-16.11328125,-1.953125
8,1734116436493,11.71875,-9.27734375,-21.484375,-8.30078125
9,1734116436496.9062,15.625,-37.59765625,-21.484375,-0.48828125
10,1734116436500.8125,10.25390625,-45.8984375,-28.3203125,10.7421875
11,1734116436504.7188,-8.30078125,15.625,-30.76171875,-20.5078125
0,1734116436508.625,-1.46484375,20.01953125,-21.484375,-19.53125
1,1734116436512.5312,7.8125,1.953125,-14.6484375,2.9296875
2,1734116436516.4375,11.71875,11.23046875,-10.7421875,5.37109375
3,1734116436520.3438,3.41796875,11.23046875,-11.71875,-4.39453125
4,1734116436524.25,-2.44140625,-0.48828125,-10.7421875,-10.7421875
5,1734116436528.1562,2.44140625,-16.6015625,-6.34765625,-1.953125
6,1734116436532.0625,0.9765625,-13.18359375,-5.37109375,-3.41796875
7,1734116436535.9688,-5.859375,-6.34765625,-12.20703125,-18.5546875
8,1734116436539.875,-14.16015625,-15.625,-18.06640625,-29.78515625
9,1734116436543.7812,-5.859375,-48.828125,-20.5078125,-14.6484375
10,1734116436547.6875,-21.484375,-12.20703125,-21.97265625,-12.20703125
11,1734116436551.5938,-34.1796875,18.5546875,-23.92578125,-28.80859375
0,1734116436555.5,-13.671875,-10.25390625,-24.4140625,-30.2734375
1,1734116436559.4062,-15.13671875,-1.46484375,-26.3671875,-24.4140625
2,1734116436563.3125,-17.08984375,9.27734375,-24.90234375,-17.08984375
3,1734116436567.2188,-10.7421875,0.9765625,-21.484375,-19.53125
4,1734116436571.125,-11.71875,-16.11328125,-19.04296875,-24.4140625
5,1734116436575.0312,-7.8125,-23.4375,-15.13671875,-24.4140625
6,1734116436578.9375,-12.6953125,-18.5546875,-18.5546875,-23.92578125
7,1734116436582.8438,-26.85546875,-12.6953125,-19.53125,-35.64453125
8,1734116436586.75,-12.20703125,-38.0859375,-18.5546875,-22.94921875
9,1734116436590.6562,7.8125,-63.96484375,-23.4375,3.90625
10,1734116436594.5625,-5.37109375,-6.8359375,-27.34375,-10.7421875
11,1734116436598.4688,-14.16015625,22.94921875,-27.83203125,-18.06640625
0,1734116436602.375,-25.87890625,-9.765625,-24.90234375,-15.13671875
1,1734116436606.2812,-34.66796875,-0.48828125,-27.83203125,-23.4375
2,1734116436610.1875,-28.3203125,13.18359375,-28.80859375,-26.85546875
3,1734116436614.0938,-24.90234375,-4.8828125,-26.3671875,-27.34375
4,1734116436618,-23.92578125,-15.13671875,-21.484375,-12.20703125
5,1734116436621.9062,-16.6015625,-11.71875,-19.04296875,-1.953125
6,1734116436625.8125,-2.44140625,-5.859375,-18.5546875,-6.8359375
7,1734116436629.7188,-6.8359375,-13.671875,-17.578125,-16.11328125
8,1734116436633.625,-2.44140625,-37.109375,-15.13671875,-8.30078125
9,1734116436637.5312,-7.8125,-14.6484375,-21.484375,-12.20703125
10,1734116436641.4375,-15.13671875,13.18359375,-20.01953125,-20.99609375
11,1734116436645.3438,-13.671875,-10.25390625,-16.11328125,-18.5546875
0,1734116436649.25,-23.92578125,-23.4375,-18.5546875,-15.625
1,1734116436653.1562,-23.4375,-6.34765625,-16.11328125,-18.5546875
2,1734116436657.0625,-24.90234375,5.37109375,-15.625,-24.90234375
3,1734116436660.9688,-16.6015625,-27.83203125,-16.11328125,-5.859375
4,1734116436664.875,-4.39453125,-44.43359375,-18.5546875,-0.9765625
5,1734116436668.7812,-13.671875,-27.34375,-19.04296875,-15.625
6,1734116436672.6875,-23.4375,-18.06640625,-12.6953125,-18.5546875
7,1734116436676.5938,-20.01953125,-42.48046875,-10.7421875,-8.30078125
8,1734116436680.5,-14.6484375,-54.6875,-21.97265625,2.44140625
9,1734116436684.4062,-20.01953125,3.41796875,-33.203125,-28.3203125
10,1734116436688.3125,-12.20703125,13.18359375,-28.80859375,-30.76171875
11,1734116436692.2188,-0.48828125,-20.99609375,-24.4140625,-13.18359375
0,1734116436696.125,-5.37109375,-20.01953125,-28.3203125,-23.92578125
1,1734116436700.0312,-10.25390625,0.48828125,-22.94921875,-20.99609375
2,1734116436703.9375,-7.32421875,-17.578125,-19.04296875,-8.30078125
3,1734116436707.8438,-12.20703125,-31.73828125,-19.53125,-9.27734375
4,1734116436711.75,-23.92578125,-14.6484375,-15.625,-18.06640625
5,1734116436715.6562,-17.578125,-9.765625,-13.671875,-14.16015625
6,1734116436719.5625,-0.48828125,-16.6015625,-12.6953125,-11.71875
7,1734116436723.4688,1.46484375,-45.8984375,-17.08984375,-6.8359375
8,1734116436727.375,-9.27734375,-24.90234375,-21.484375,-7.32421875
9,1734116436731.2812,-12.20703125,18.06640625,-21.97265625,-16.11328125
10,1734116436735.1875,-9.765625,-6.8359375,-17.578125,-2.9296875
11,1734116436739.0938,0,-17.578125,-12.20703125,7.32421875
0,1734116436743,7.32421875,1.953125,-16.11328125,3.90625
1,1734116436746.9062,-1.46484375,-2.44140625,-21.97265625,7.32421875
2,1734116436750.8125,-5.37109375,-21.97265625,-18.5546875,14.6484375
3,1734116436754.7188,7.8125,-15.625,-13.18359375,7.32421875
4,1734116436758.625,6.34765625,-3.90625,-14.16015625,-0.48828125
5,1734116436762.5312,-1.46484375,-15.13671875,-19.04296875,1.46484375
6,1734116436766.4375,10.7421875,-47.36328125,-14.6484375,16.6015625
7,1734116436770.3438,11.23046875,-49.31640625,-11.71875,19.53125
8,1734116436774.25,-2.9296875,-9.765625,-21.484375,-1.953125
9,1734116436778.1562,0.48828125,-6.8359375,-17.578125,-7.32421875
10,1734116436782.0625,10.25390625,-43.9453125,-13.18359375,9.765625
11,1734116436785.9688,-8.30078125,-44.921875,-17.08984375,10.25390625
0,1734116436789.875,-18.5546875,9.765625,-16.11328125,-11.71875
1,1734116436793.7812,-4.8828125,4.8828125,-17.578125,-12.20703125
2,1734116436797.6875,-3.90625,-3.41796875,-14.16015625,-0.48828125
3,1734116436801.5938,-8.7890625,12.20703125,-12.6953125,5.37109375
4,1734116436805.5,1.953125,7.32421875,-17.578125,-5.859375
5,1734116436809.4062,5.37109375,-11.23046875,-18.5546875,-5.859375
